File: Experimental Records, Raw Data, and Supplementary Notes and Figures/batch2/final500/B2_BEST_500#5_Full-354mV.txt
Jan. 18, 2023   16:10:28
Linear Sweep Voltammetry
File: d:\current work\al_oer\electrochemical test data\batch 2\500\B2_BEST_500#5_Full-354mV.txt
Data Source:  Experiment
Instrument Model:  CHI660E
Header:
Note:

Init E (V) = 1.099

Final E (V) = 1.701

Scan Rate (V/s) = 0.010
Sample Interval (V) = 0.001
Quiet Time (sec) = 2
Sensitivity (A/V) = 0.001
Comp R (ohm) = 4.7

Results:

Channel 1:

Potential/V, Current/A
1.099,   1.512e-5
1.102,   1.319e-5
1.105,   1.137e-5
1.108,   1.003e-5
1.111,   9.079e-6
1.114,   8.304e-6
1.117,   7.759e-6
1.120,   7.336e-6
1.123,   6.982e-6
1.126,   6.691e-6
1.129,   6.486e-6
1.132,   6.304e-6
1.135,   6.103e-6
1.138,   5.967e-6
1.141,   5.891e-6
1.144,   5.864e-6
1.147,   5.718e-6
1.150,   5.681e-6
1.153,   5.657e-6
1.156,   5.638e-6
1.159,   5.657e-6
1.162,   5.652e-6
1.165,   5.616e-6
1.168,   5.647e-6
1.171,   5.709e-6
1.174,   5.670e-6
1.177,   5.673e-6
1.180,   5.725e-6
1.183,   5.813e-6
1.186,   5.969e-6
1.189,   5.966e-6
1.192,   6.038e-6
1.195,   6.069e-6
1.198,   6.064e-6
1.201,   6.129e-6
1.204,   6.190e-6
1.207,   6.277e-6
1.210,   6.315e-6
1.213,   6.380e-6
1.216,   6.435e-6
1.219,   6.468e-6
1.222,   6.576e-6
1.225,   6.576e-6
1.228,   6.688e-6
1.231,   6.755e-6
1.234,   6.731e-6
1.237,   6.846e-6
1.240,   6.888e-6
1.243,   6.937e-6
1.246,   6.961e-6
1.249,   7.026e-6
1.252,   7.113e-6
1.255,   7.142e-6
1.258,   7.211e-6
1.261,   7.248e-6
1.264,   7.335e-6
1.267,   7.339e-6
1.270,   7.419e-6
1.273,   7.503e-6
1.276,   7.498e-6
1.279,   7.539e-6
1.282,   7.657e-6
1.285,   7.671e-6
1.288,   7.775e-6
1.291,   7.852e-6
1.294,   7.920e-6
1.297,   8.008e-6
1.300,   8.154e-6
1.303,   8.190e-6
1.306,   8.366e-6
1.309,   8.452e-6
1.312,   8.505e-6
1.315,   8.664e-6
1.318,   8.763e-6
1.321,   8.928e-6
1.324,   9.078e-6
1.327,   9.202e-6
1.330,   9.379e-6
1.333,   9.480e-6
1.336,   9.589e-6
1.339,   9.758e-6
1.342,   9.959e-6
1.345,   1.010e-5
1.348,   1.028e-5
1.351,   1.048e-5
1.354,   1.058e-5
1.357,   1.074e-5
1.360,   1.099e-5
1.363,   1.115e-5
1.366,   1.140e-5
1.369,   1.159e-5
1.372,   1.180e-5
1.375,   1.205e-5
1.378,   1.233e-5
1.381,   1.257e-5
1.384,   1.289e-5
1.387,   1.327e-5
1.390,   1.366e-5
1.393,   1.411e-5
1.396,   1.474e-5
1.399,   1.537e-5
1.402,   1.609e-5
1.405,   1.695e-5
1.408,   1.795e-5
1.411,   1.909e-5
1.414,   2.047e-5
1.417,   2.205e-5
1.420,   2.381e-5
1.423,   2.582e-5
1.426,   2.812e-5
1.429,   3.086e-5
1.432,   3.378e-5
1.435,   3.719e-5
1.438,   4.096e-5
1.441,   4.533e-5
1.444,   5.028e-5
1.447,   5.580e-5
1.450,   6.205e-5
1.453,   6.904e-5
1.456,   7.692e-5
1.459,   8.581e-5
1.462,   9.557e-5
1.465,   1.066e-4
1.468,   1.189e-4
1.471,   1.322e-4
1.474,   1.469e-4
1.477,   1.631e-4
1.480,   1.810e-4
1.483,   2.004e-4
1.486,   2.216e-4
1.489,   2.450e-4
1.492,   2.697e-4
1.495,   2.970e-4
1.498,   3.254e-4
1.501,   3.560e-4
1.504,   3.893e-4
1.507,   4.232e-4
1.510,   4.600e-4
1.513,   4.981e-4
1.516,   5.381e-4
1.519,   5.809e-4
1.522,   6.245e-4
1.525,   6.682e-4
1.528,   7.166e-4
1.531,   7.667e-4
1.534,   8.188e-4
1.537,   8.725e-4
1.540,   9.276e-4
1.543,   9.831e-4
1.546,   1.043e-3
1.549,   1.097e-3
1.552,   1.161e-3
1.555,   1.224e-3
1.558,   1.289e-3
1.561,   1.353e-3
1.564,   1.422e-3
1.567,   1.493e-3
1.570,   1.562e-3
1.573,   1.635e-3
1.576,   1.707e-3
1.579,   1.790e-3
1.582,   1.876e-3
1.585,   1.952e-3
1.588,   2.027e-3
1.591,   2.104e-3
1.594,   2.193e-3
1.597,   2.270e-3
1.600,   2.346e-3
1.603,   2.435e-3
1.606,   2.529e-3
1.609,   2.616e-3
1.612,   2.699e-3
1.615,   2.790e-3
1.618,   2.875e-3
1.621,   2.980e-3
1.624,   3.047e-3
1.627,   3.144e-3
1.630,   3.207e-3
1.633,   3.287e-3
1.636,   3.371e-3
1.639,   3.429e-3
1.642,   3.517e-3
1.645,   3.578e-3
1.648,   3.669e-3
1.651,   3.737e-3
1.654,   3.789e-3
1.657,   3.832e-3
1.660,   3.927e-3
1.663,   3.991e-3
1.666,   4.048e-3
1.669,   4.091e-3
1.672,   4.146e-3
1.675,   4.201e-3
1.678,   4.254e-3
1.681,   4.313e-3
1.684,   4.337e-3
1.687,   4.359e-3
1.690,   4.371e-3
1.693,   4.404e-3
1.696,   4.431e-3
1.699,   4.448e-3
1.701,   4.482e-3