File: Experimental Records, Raw Data, and Supplementary Notes and Figures/batch2/final500/B2_BEST_500#1_Full-257mV.txt
Jan. 18, 2023   15:16:56
Linear Sweep Voltammetry
File: d:\current work\al_oer\electrochemical test data\batch 2\500\B2_BEST_500#1_Full-257mV.txt
Data Source:  Experiment
Instrument Model:  CHI660E
Header:
Note:

Init E (V) = 1.098

Final E (V) = 1.558

Scan Rate (V/s) = 0.010
Sample Interval (V) = 0.001
Quiet Time (sec) = 2
Sensitivity (A/V) = 0.001
Comp R (ohm) = 5.0

Results:

Channel 1:

Potential/V, Current/A
1.098,   1.209e-4
1.100,   1.155e-4
1.102,   1.035e-4
1.104,   9.415e-5
1.106,   8.684e-5
1.108,   8.105e-5
1.110,   7.621e-5
1.112,   7.214e-5
1.114,   6.880e-5
1.116,   6.591e-5
1.118,   6.375e-5
1.120,   6.169e-5
1.122,   5.961e-5
1.124,   5.845e-5
1.126,   5.738e-5
1.128,   5.605e-5
1.130,   5.515e-5
1.132,   5.467e-5
1.134,   5.406e-5
1.136,   5.288e-5
1.138,   5.242e-5
1.140,   5.195e-5
1.142,   5.142e-5
1.144,   5.133e-5
1.146,   5.097e-5
1.148,   5.083e-5
1.150,   5.068e-5
1.152,   5.051e-5
1.154,   5.029e-5
1.156,   5.035e-5
1.158,   5.033e-5
1.160,   5.014e-5
1.162,   5.015e-5
1.164,   5.036e-5
1.166,   5.030e-5
1.168,   5.032e-5
1.170,   5.062e-5
1.172,   5.075e-5
1.174,   5.089e-5
1.176,   5.104e-5
1.178,   5.100e-5
1.180,   5.135e-5
1.182,   5.169e-5
1.184,   5.184e-5
1.186,   5.195e-5
1.188,   5.237e-5
1.190,   5.257e-5
1.192,   5.272e-5
1.194,   5.304e-5
1.196,   5.347e-5
1.198,   5.345e-5
1.200,   5.378e-5
1.202,   5.415e-5
1.204,   5.442e-5
1.206,   5.471e-5
1.208,   5.504e-5
1.210,   5.515e-5
1.212,   5.566e-5
1.214,   5.599e-5
1.216,   5.604e-5
1.218,   5.640e-5
1.220,   5.685e-5
1.222,   5.707e-5
1.224,   5.734e-5
1.226,   5.756e-5
1.228,   5.787e-5
1.230,   5.820e-5
1.232,   5.832e-5
1.234,   5.857e-5
1.236,   5.899e-5
1.238,   5.916e-5
1.240,   5.917e-5
1.242,   5.949e-5
1.244,   5.973e-5
1.246,   5.982e-5
1.248,   6.006e-5
1.250,   6.015e-5
1.252,   6.030e-5
1.254,   6.060e-5
1.256,   6.047e-5
1.258,   6.057e-5
1.260,   6.097e-5
1.262,   6.092e-5
1.264,   6.080e-5
1.266,   6.098e-5
1.268,   6.113e-5
1.270,   6.102e-5
1.272,   6.121e-5
1.274,   6.120e-5
1.276,   6.120e-5
1.278,   6.137e-5
1.280,   6.137e-5
1.282,   6.119e-5
1.284,   6.138e-5
1.286,   6.159e-5
1.288,   6.143e-5
1.290,   6.131e-5
1.292,   6.167e-5
1.294,   6.160e-5
1.296,   6.150e-5
1.298,   6.163e-5
1.300,   6.179e-5
1.302,   6.176e-5
1.304,   6.185e-5
1.306,   6.196e-5
1.308,   6.210e-5
1.310,   6.217e-5
1.312,   6.242e-5
1.314,   6.246e-5
1.316,   6.264e-5
1.318,   6.284e-5
1.320,   6.304e-5
1.322,   6.306e-5
1.324,   6.367e-5
1.326,   6.377e-5
1.328,   6.376e-5
1.330,   6.409e-5
1.332,   6.449e-5
1.334,   6.474e-5
1.336,   6.499e-5
1.338,   6.534e-5
1.340,   6.564e-5
1.342,   6.603e-5
1.344,   6.640e-5
1.346,   6.666e-5
1.348,   6.727e-5
1.350,   6.774e-5
1.352,   6.787e-5
1.354,   6.862e-5
1.356,   6.921e-5
1.358,   6.963e-5
1.360,   7.032e-5
1.362,   7.099e-5
1.364,   7.153e-5
1.366,   7.232e-5
1.368,   7.305e-5
1.370,   7.359e-5
1.372,   7.467e-5
1.374,   7.581e-5
1.376,   7.655e-5
1.378,   7.756e-5
1.380,   7.894e-5
1.382,   8.000e-5
1.384,   8.129e-5
1.386,   8.275e-5
1.388,   8.444e-5
1.390,   8.623e-5
1.392,   8.822e-5
1.394,   9.027e-5
1.396,   9.269e-5
1.398,   9.545e-5
1.400,   9.824e-5
1.402,   1.013e-4
1.404,   1.053e-4
1.406,   1.092e-4
1.408,   1.136e-4
1.410,   1.189e-4
1.412,   1.246e-4
1.414,   1.309e-4
1.416,   1.378e-4
1.418,   1.455e-4
1.420,   1.542e-4
1.422,   1.638e-4
1.424,   1.743e-4
1.426,   1.864e-4
1.428,   1.993e-4
1.430,   2.138e-4
1.432,   2.294e-4
1.434,   2.470e-4
1.436,   2.665e-4
1.438,   2.876e-4
1.440,   3.104e-4
1.442,   3.361e-4
1.444,   3.641e-4
1.446,   3.944e-4
1.448,   4.278e-4
1.450,   4.636e-4
1.452,   5.032e-4
1.454,   5.461e-4
1.456,   5.923e-4
1.458,   6.421e-4
1.460,   6.965e-4
1.462,   7.548e-4
1.464,   8.171e-4
1.466,   8.840e-4
1.468,   9.566e-4
1.470,   1.034e-3
1.472,   1.116e-3
1.474,   1.204e-3
1.476,   1.297e-3
1.478,   1.396e-3
1.480,   1.500e-3
1.482,   1.612e-3
1.484,   1.727e-3
1.486,   1.853e-3
1.488,   1.987e-3
1.490,   2.120e-3
1.492,   2.261e-3
1.494,   2.405e-3
1.496,   2.560e-3
1.498,   2.727e-3
1.500,   2.886e-3
1.502,   3.080e-3
1.504,   3.245e-3
1.506,   3.424e-3
1.508,   3.638e-3
1.510,   3.889e-3
1.512,   4.074e-3
1.514,   4.263e-3
1.516,   4.446e-3
1.518,   4.721e-3
1.520,   4.980e-3
1.522,   5.219e-3
1.524,   5.520e-3
1.526,   5.787e-3
1.528,   5.960e-3
1.530,   6.166e-3
1.532,   6.434e-3
1.534,   6.960e-3
1.536,   7.107e-3
1.538,   7.300e-3
1.540,   7.548e-3
1.542,   7.743e-3
1.544,   8.502e-3
1.546,   8.950e-3
1.548,   9.398e-3
1.550,   9.526e-3
1.552,   9.758e-3
1.554,   9.993e-3
1.556,   1.007e-2
1.558,   1.007e-2