File: Experimental Records, Raw Data, and Supplementary Notes and Figures/batch2/final500/B2_BEST_500#13_Full-377mV.txt
Jan. 19, 2023   12:22:31
Linear Sweep Voltammetry
File: d:\current work\al_oer\electrochemical test data\batch 2\500\B2_BEST_500#13_Full-377mV.txt
Data Source:  Experiment
Instrument Model:  CHI660E
Header:
Note:

Init E (V) = 1.099

Final E (V) = 1.798

Scan Rate (V/s) = 0.010
Sample Interval (V) = 0.001
Quiet Time (sec) = 2
Sensitivity (A/V) = 0.001

Results:

Channel 1:

Potential/V, Current/A
1.099,   -1.674e-5
1.102,   -9.952e-6
1.105,   -6.581e-6
1.108,   -4.291e-6
1.111,   -2.601e-6
1.114,   -1.372e-6
1.117,   -3.767e-7
1.120,   4.781e-7
1.123,   1.123e-6
1.126,   1.696e-6
1.129,   2.217e-6
1.132,   2.660e-6
1.135,   3.038e-6
1.138,   3.403e-6
1.141,   3.774e-6
1.144,   4.029e-6
1.147,   4.290e-6
1.150,   4.542e-6
1.153,   4.788e-6
1.156,   5.017e-6
1.159,   5.247e-6
1.162,   5.452e-6
1.165,   5.721e-6
1.168,   5.914e-6
1.171,   6.114e-6
1.174,   6.329e-6
1.177,   6.502e-6
1.180,   6.754e-6
1.183,   6.938e-6
1.186,   7.160e-6
1.189,   7.300e-6
1.192,   7.484e-6
1.195,   7.640e-6
1.198,   7.822e-6
1.201,   7.993e-6
1.204,   8.156e-6
1.207,   8.339e-6
1.210,   8.519e-6
1.213,   8.655e-6
1.216,   8.795e-6
1.219,   8.972e-6
1.222,   9.092e-6
1.225,   9.236e-6
1.228,   9.376e-6
1.231,   9.549e-6
1.234,   9.655e-6
1.237,   9.799e-6
1.240,   9.891e-6
1.243,   1.003e-5
1.246,   1.013e-5
1.249,   1.026e-5
1.252,   1.038e-5
1.255,   1.052e-5
1.258,   1.063e-5
1.261,   1.073e-5
1.264,   1.079e-5
1.267,   1.096e-5
1.270,   1.102e-5
1.273,   1.116e-5
1.276,   1.124e-5
1.279,   1.141e-5
1.282,   1.150e-5
1.285,   1.161e-5
1.288,   1.173e-5
1.291,   1.181e-5
1.294,   1.194e-5
1.297,   1.206e-5
1.300,   1.216e-5
1.303,   1.228e-5
1.306,   1.245e-5
1.309,   1.252e-5
1.312,   1.265e-5
1.315,   1.277e-5
1.318,   1.286e-5
1.321,   1.302e-5
1.324,   1.316e-5
1.327,   1.333e-5
1.330,   1.342e-5
1.333,   1.357e-5
1.336,   1.369e-5
1.339,   1.383e-5
1.342,   1.402e-5
1.345,   1.419e-5
1.348,   1.435e-5
1.351,   1.452e-5
1.354,   1.471e-5
1.357,   1.494e-5
1.360,   1.510e-5
1.363,   1.532e-5
1.366,   1.551e-5
1.369,   1.575e-5
1.372,   1.600e-5
1.375,   1.630e-5
1.378,   1.662e-5
1.381,   1.683e-5
1.384,   1.719e-5
1.387,   1.755e-5
1.390,   1.794e-5
1.393,   1.841e-5
1.396,   1.885e-5
1.399,   1.944e-5
1.402,   2.006e-5
1.405,   2.078e-5
1.408,   2.155e-5
1.411,   2.248e-5
1.414,   2.356e-5
1.417,   2.474e-5
1.420,   2.614e-5
1.423,   2.768e-5
1.426,   2.948e-5
1.429,   3.146e-5
1.432,   3.372e-5
1.435,   3.635e-5
1.438,   3.913e-5
1.441,   4.238e-5
1.444,   4.610e-5
1.447,   5.020e-5
1.450,   5.481e-5
1.453,   5.989e-5
1.456,   6.556e-5
1.459,   7.172e-5
1.462,   7.873e-5
1.465,   8.594e-5
1.468,   9.406e-5
1.471,   1.036e-4
1.474,   1.135e-4
1.477,   1.240e-4
1.480,   1.351e-4
1.483,   1.473e-4
1.486,   1.606e-4
1.489,   1.744e-4
1.492,   1.898e-4
1.495,   2.054e-4
1.498,   2.222e-4
1.501,   2.431e-4
1.504,   2.630e-4
1.507,   2.845e-4
1.510,   3.062e-4
1.513,   3.295e-4
1.516,   3.530e-4
1.519,   3.819e-4
1.522,   4.099e-4
1.525,   4.389e-4
1.528,   4.696e-4
1.531,   5.006e-4
1.534,   5.341e-4
1.537,   5.701e-4
1.540,   6.092e-4
1.543,   6.486e-4
1.546,   6.883e-4
1.549,   7.266e-4
1.552,   7.741e-4
1.555,   8.253e-4
1.558,   8.770e-4
1.561,   9.284e-4
1.564,   9.802e-4
1.567,   1.033e-3
1.570,   1.093e-3
1.573,   1.153e-3
1.576,   1.208e-3
1.579,   1.269e-3
1.582,   1.330e-3
1.585,   1.393e-3
1.588,   1.452e-3
1.591,   1.531e-3
1.594,   1.598e-3
1.597,   1.666e-3
1.600,   1.739e-3
1.603,   1.809e-3
1.606,   1.891e-3
1.609,   1.978e-3
1.612,   2.049e-3
1.615,   2.134e-3
1.618,   2.216e-3
1.621,   2.300e-3
1.624,   2.387e-3
1.627,   2.478e-3
1.630,   2.559e-3
1.633,   2.637e-3
1.636,   2.752e-3
1.639,   2.846e-3
1.642,   2.938e-3
1.645,   3.026e-3
1.648,   3.135e-3
1.651,   3.234e-3
1.654,   3.327e-3
1.657,   3.429e-3
1.660,   3.532e-3
1.663,   3.629e-3
1.666,   3.751e-3
1.669,   3.856e-3
1.672,   3.962e-3
1.675,   4.077e-3
1.678,   4.189e-3
1.681,   4.296e-3
1.684,   4.411e-3
1.687,   4.515e-3
1.690,   4.632e-3
1.693,   4.776e-3
1.696,   4.898e-3
1.699,   5.000e-3
1.702,   5.125e-3
1.705,   5.243e-3
1.708,   5.355e-3
1.711,   5.489e-3
1.714,   5.606e-3
1.717,   5.741e-3
1.720,   5.848e-3
1.723,   5.973e-3
1.726,   6.099e-3
1.729,   6.201e-3
1.732,   6.332e-3
1.735,   6.454e-3
1.738,   6.581e-3
1.741,   6.682e-3
1.744,   6.793e-3
1.747,   6.958e-3
1.750,   7.067e-3
1.753,   7.180e-3
1.756,   7.289e-3
1.759,   7.434e-3
1.762,   7.532e-3
1.765,   7.641e-3
1.768,   7.749e-3
1.771,   7.849e-3
1.774,   7.983e-3
1.777,   8.075e-3
1.780,   8.194e-3
1.783,   8.313e-3
1.786,   8.406e-3
1.789,   8.513e-3
1.792,   8.615e-3
1.795,   8.685e-3
1.798,   8.826e-3