File: Experimental Records, Raw Data, and Supplementary Notes and Figures/batch2/final500/B2_VARIANCE_500#19_High_Quality-247mV.txt
Jan. 19, 2023   14:46:47
Linear Sweep Voltammetry
File: d:\current work\al_oer\electrochemical test data\batch 2\500\B2_VARIANCE_500#19_High_Quality-247mV.txt
Data Source:  Experiment
Instrument Model:  CHI660E
Header:
Note:

Init E (V) = 1.100

Final E (V) = 1.727

Scan Rate (V/s) = 0.010
Sample Interval (V) = 0.001
Quiet Time (sec) = 2
Sensitivity (A/V) = 0.001
Comp R (ohm) = 5.9

Results:

Channel 1:
Ep = 1.361V
ip = 9.952e-3A
Ah = 1.022e-1C

Potential/V, Current/A
1.100,   2.660e-4
1.103,   2.239e-4
1.106,   1.911e-4
1.109,   1.669e-4
1.112,   1.484e-4
1.115,   1.341e-4
1.118,   1.226e-4
1.121,   1.133e-4
1.124,   1.055e-4
1.127,   9.917e-5
1.130,   9.385e-5
1.133,   8.936e-5
1.136,   8.544e-5
1.139,   8.208e-5
1.142,   7.925e-5
1.145,   7.675e-5
1.148,   7.447e-5
1.151,   7.269e-5
1.154,   7.107e-5
1.157,   6.962e-5
1.160,   6.840e-5
1.163,   6.736e-5
1.166,   6.646e-5
1.169,   6.564e-5
1.172,   6.495e-5
1.175,   6.426e-5
1.178,   6.373e-5
1.181,   6.327e-5
1.184,   6.283e-5
1.187,   6.252e-5
1.190,   6.231e-5
1.193,   6.203e-5
1.196,   6.180e-5
1.199,   6.165e-5
1.202,   6.149e-5
1.205,   6.148e-5
1.208,   6.141e-5
1.211,   6.135e-5
1.214,   6.134e-5
1.217,   6.133e-5
1.220,   6.133e-5
1.223,   6.141e-5
1.226,   6.155e-5
1.229,   6.160e-5
1.232,   6.167e-5
1.235,   6.177e-5
1.238,   6.186e-5
1.241,   6.188e-5
1.244,   6.201e-5
1.247,   6.212e-5
1.250,   6.230e-5
1.253,   6.248e-5
1.256,   6.264e-5
1.259,   6.285e-5
1.262,   6.306e-5
1.265,   6.327e-5
1.268,   6.347e-5
1.271,   6.355e-5
1.274,   6.378e-5
1.277,   6.393e-5
1.280,   6.420e-5
1.283,   6.439e-5
1.286,   6.462e-5
1.289,   6.479e-5
1.292,   6.498e-5
1.295,   6.529e-5
1.298,   6.557e-5
1.301,   6.589e-5
1.304,   6.626e-5
1.307,   6.657e-5
1.310,   6.689e-5
1.313,   6.714e-5
1.316,   6.746e-5
1.319,   6.777e-5
1.322,   6.820e-5
1.325,   6.870e-5
1.328,   6.914e-5
1.331,   6.962e-5
1.334,   7.010e-5
1.337,   7.063e-5
1.340,   7.121e-5
1.343,   7.184e-5
1.346,   7.263e-5
1.349,   7.351e-5
1.352,   7.436e-5
1.355,   7.527e-5
1.358,   7.641e-5
1.361,   7.754e-5
1.364,   7.888e-5
1.367,   8.025e-5
1.370,   8.175e-5
1.373,   8.369e-5
1.376,   8.590e-5
1.379,   8.860e-5
1.382,   9.158e-5
1.385,   9.524e-5
1.388,   9.978e-5
1.391,   1.050e-4
1.394,   1.114e-4
1.397,   1.191e-4
1.400,   1.280e-4
1.403,   1.388e-4
1.406,   1.515e-4
1.409,   1.664e-4
1.412,   1.835e-4
1.415,   2.042e-4
1.418,   2.302e-4
1.421,   2.577e-4
1.424,   2.886e-4
1.427,   3.231e-4
1.430,   3.664e-4
1.433,   4.122e-4
1.436,   4.599e-4
1.439,   5.207e-4
1.442,   5.804e-4
1.445,   6.519e-4
1.448,   7.219e-4
1.451,   8.060e-4
1.454,   8.971e-4
1.457,   9.925e-4
1.460,   1.105e-3
1.463,   1.223e-3
1.466,   1.354e-3
1.469,   1.492e-3
1.472,   1.634e-3
1.475,   1.798e-3
1.478,   1.977e-3
1.481,   2.160e-3
1.484,   2.363e-3
1.487,   2.579e-3
1.490,   2.790e-3
1.493,   3.025e-3
1.496,   3.280e-3
1.499,   3.542e-3
1.502,   3.799e-3
1.505,   4.080e-3
1.508,   4.354e-3
1.511,   4.680e-3
1.514,   4.985e-3
1.517,   5.311e-3
1.520,   5.611e-3
1.523,   5.933e-3
1.526,   6.262e-3
1.529,   6.603e-3
1.532,   6.934e-3
1.535,   7.271e-3
1.538,   7.613e-3
1.541,   7.947e-3
1.544,   8.261e-3
1.547,   8.665e-3
1.550,   9.007e-3
1.553,   9.348e-3
1.556,   9.675e-3
1.559,   1.005e-2
1.562,   1.006e-2
1.565,   1.006e-2
1.568,   1.006e-2
1.571,   1.006e-2
1.574,   1.006e-2
1.577,   1.006e-2
1.580,   1.006e-2
1.583,   1.006e-2
1.586,   1.006e-2
1.589,   1.006e-2
1.592,   1.006e-2
1.595,   1.006e-2
1.598,   1.006e-2
1.601,   1.006e-2
1.604,   1.006e-2
1.607,   1.006e-2
1.610,   1.006e-2
1.613,   1.006e-2
1.616,   1.006e-2
1.619,   1.006e-2
1.622,   1.006e-2
1.625,   1.006e-2
1.628,   1.006e-2
1.631,   1.006e-2
1.634,   1.006e-2
1.637,   1.006e-2
1.640,   1.006e-2
1.643,   1.006e-2
1.646,   1.006e-2
1.649,   1.006e-2
1.652,   1.006e-2
1.655,   1.006e-2
1.658,   1.006e-2
1.661,   1.006e-2
1.664,   1.006e-2
1.667,   1.006e-2
1.670,   1.006e-2
1.673,   1.006e-2
1.676,   1.006e-2
1.679,   1.006e-2
1.682,   1.006e-2
1.685,   1.006e-2
1.688,   1.006e-2
1.691,   1.006e-2
1.694,   1.006e-2
1.697,   1.006e-2
1.700,   1.006e-2
1.703,   1.006e-2
1.706,   1.006e-2
1.709,   1.006e-2
1.712,   1.006e-2
1.715,   1.006e-2
1.718,   1.006e-2
1.721,   1.006e-2
1.724,   1.006e-2
1.727,   1.006e-2