File: Experimental Records, Raw Data, and Supplementary Notes and Figures/batch2/final500/B2_VARIANCE_500#18_High_Quality-337mV.txt
Jan. 19, 2023   14:22:09
Linear Sweep Voltammetry
File: d:\current work\al_oer\electrochemical test data\batch 2\500\B2_VARIANCE_500#18_High_Quality-337mV.txt
Data Source:  Experiment
Instrument Model:  CHI660E
Header:
Note:

Init E (V) = 1.099

Final E (V) = 1.798

Scan Rate (V/s) = 0.010
Sample Interval (V) = 0.001
Quiet Time (sec) = 2
Sensitivity (A/V) = 0.001
Comp R (ohm) = 5.5

Results:

Channel 1:

Potential/V, Current/A
1.099,   2.298e-5
1.102,   2.035e-5
1.105,   1.780e-5
1.108,   1.601e-5
1.111,   1.463e-5
1.114,   1.360e-5
1.117,   1.281e-5
1.120,   1.216e-5
1.123,   1.163e-5
1.126,   1.121e-5
1.129,   1.084e-5
1.132,   1.060e-5
1.135,   1.042e-5
1.138,   1.022e-5
1.141,   1.008e-5
1.144,   9.966e-6
1.147,   9.850e-6
1.150,   9.819e-6
1.153,   9.780e-6
1.156,   9.748e-6
1.159,   9.784e-6
1.162,   9.742e-6
1.165,   9.758e-6
1.168,   9.814e-6
1.171,   9.827e-6
1.174,   9.854e-6
1.177,   9.921e-6
1.180,   9.983e-6
1.183,   1.009e-5
1.186,   1.013e-5
1.189,   1.021e-5
1.192,   1.027e-5
1.195,   1.036e-5
1.198,   1.043e-5
1.201,   1.052e-5
1.204,   1.060e-5
1.207,   1.072e-5
1.210,   1.082e-5
1.213,   1.090e-5
1.216,   1.100e-5
1.219,   1.107e-5
1.222,   1.117e-5
1.225,   1.126e-5
1.228,   1.132e-5
1.231,   1.138e-5
1.234,   1.145e-5
1.237,   1.146e-5
1.240,   1.154e-5
1.243,   1.152e-5
1.246,   1.155e-5
1.249,   1.156e-5
1.252,   1.157e-5
1.255,   1.162e-5
1.258,   1.158e-5
1.261,   1.158e-5
1.264,   1.155e-5
1.267,   1.153e-5
1.270,   1.153e-5
1.273,   1.153e-5
1.276,   1.146e-5
1.279,   1.148e-5
1.282,   1.150e-5
1.285,   1.141e-5
1.288,   1.143e-5
1.291,   1.144e-5
1.294,   1.139e-5
1.297,   1.142e-5
1.300,   1.141e-5
1.303,   1.144e-5
1.306,   1.146e-5
1.309,   1.147e-5
1.312,   1.147e-5
1.315,   1.151e-5
1.318,   1.159e-5
1.321,   1.162e-5
1.324,   1.169e-5
1.327,   1.177e-5
1.330,   1.187e-5
1.333,   1.190e-5
1.336,   1.201e-5
1.339,   1.210e-5
1.342,   1.217e-5
1.345,   1.225e-5
1.348,   1.236e-5
1.351,   1.250e-5
1.354,   1.267e-5
1.357,   1.278e-5
1.360,   1.293e-5
1.363,   1.315e-5
1.366,   1.326e-5
1.369,   1.341e-5
1.372,   1.363e-5
1.375,   1.379e-5
1.378,   1.402e-5
1.381,   1.427e-5
1.384,   1.458e-5
1.387,   1.489e-5
1.390,   1.524e-5
1.393,   1.562e-5
1.396,   1.612e-5
1.399,   1.664e-5
1.402,   1.727e-5
1.405,   1.800e-5
1.408,   1.882e-5
1.411,   1.971e-5
1.414,   2.081e-5
1.417,   2.192e-5
1.420,   2.338e-5
1.423,   2.498e-5
1.426,   2.687e-5
1.429,   2.896e-5
1.432,   3.133e-5
1.435,   3.402e-5
1.438,   3.706e-5
1.441,   4.052e-5
1.444,   4.459e-5
1.447,   4.923e-5
1.450,   5.456e-5
1.453,   6.057e-5
1.456,   6.742e-5
1.459,   7.522e-5
1.462,   8.421e-5
1.465,   9.438e-5
1.468,   1.058e-4
1.471,   1.187e-4
1.474,   1.332e-4
1.477,   1.494e-4
1.480,   1.676e-4
1.483,   1.876e-4
1.486,   2.097e-4
1.489,   2.341e-4
1.492,   2.610e-4
1.495,   2.906e-4
1.498,   3.226e-4
1.501,   3.570e-4
1.504,   3.942e-4
1.507,   4.343e-4
1.510,   4.772e-4
1.513,   5.221e-4
1.516,   5.702e-4
1.519,   6.209e-4
1.522,   6.742e-4
1.525,   7.308e-4
1.528,   7.909e-4
1.531,   8.550e-4
1.534,   9.217e-4
1.537,   9.921e-4
1.540,   1.067e-3
1.543,   1.145e-3
1.546,   1.227e-3
1.549,   1.314e-3
1.552,   1.405e-3
1.555,   1.499e-3
1.558,   1.597e-3
1.561,   1.699e-3
1.564,   1.803e-3
1.567,   1.911e-3
1.570,   2.021e-3
1.573,   2.134e-3
1.576,   2.246e-3
1.579,   2.362e-3
1.582,   2.476e-3
1.585,   2.590e-3
1.588,   2.706e-3
1.591,   2.821e-3
1.594,   2.936e-3
1.597,   3.051e-3
1.600,   3.162e-3
1.603,   3.274e-3
1.606,   3.385e-3
1.609,   3.484e-3
1.612,   3.592e-3
1.615,   3.701e-3
1.618,   3.812e-3
1.621,   3.919e-3
1.624,   4.014e-3
1.627,   4.114e-3
1.630,   4.214e-3
1.633,   4.304e-3
1.636,   4.406e-3
1.639,   4.491e-3
1.642,   4.584e-3
1.645,   4.678e-3
1.648,   4.753e-3
1.651,   4.823e-3
1.654,   4.896e-3
1.657,   4.976e-3
1.660,   5.037e-3
1.663,   5.104e-3
1.666,   5.147e-3
1.669,   5.233e-3
1.672,   5.381e-3
1.675,   5.483e-3
1.678,   5.531e-3
1.681,   5.562e-3
1.684,   5.601e-3
1.687,   5.636e-3
1.690,   5.652e-3
1.693,   5.680e-3
1.696,   5.730e-3
1.699,   5.799e-3
1.702,   5.809e-3
1.705,   5.800e-3
1.708,   5.799e-3
1.711,   5.805e-3
1.714,   5.835e-3
1.717,   5.820e-3
1.720,   5.816e-3
1.723,   5.820e-3
1.726,   5.823e-3
1.729,   5.828e-3
1.732,   5.814e-3
1.735,   6.014e-3
1.738,   5.965e-3
1.741,   5.910e-3
1.744,   5.854e-3
1.747,   5.802e-3
1.750,   5.758e-3
1.753,   5.713e-3
1.756,   5.686e-3
1.759,   5.652e-3
1.762,   5.608e-3
1.765,   5.547e-3
1.768,   5.485e-3
1.771,   5.426e-3
1.774,   5.377e-3
1.777,   5.350e-3
1.780,   5.287e-3
1.783,   5.222e-3
1.786,   5.164e-3
1.789,   5.107e-3
1.792,   5.048e-3
1.795,   5.069e-3
1.798,   5.029e-3