File: Experimental Records, Raw Data, and Supplementary Notes and Figures/batch2/final500/B2_VARIANCE_500#15_High_Quality-320mV.txt
Jan. 19, 2023   13:12:53
Linear Sweep Voltammetry
File: d:\current work\al_oer\electrochemical test data\batch 2\500\B2_VARIANCE_500#15_High_Quality-320mV.txt
Data Source:  Experiment
Instrument Model:  CHI660E
Header:
Note:

Init E (V) = 1.100

Final E (V) = 1.799

Scan Rate (V/s) = 0.010
Sample Interval (V) = 0.001
Quiet Time (sec) = 2
Sensitivity (A/V) = 0.001
Comp R (ohm) = 5.9

Results:

Channel 1:
Ep = 1.516V
ip = 7.054e-3A
Ah = 1.340e-1C

Potential/V, Current/A
1.100,   2.709e-5
1.103,   2.339e-5
1.106,   2.012e-5
1.109,   1.773e-5
1.112,   1.612e-5
1.115,   1.491e-5
1.118,   1.397e-5
1.121,   1.325e-5
1.124,   1.263e-5
1.127,   1.218e-5
1.130,   1.175e-5
1.133,   1.148e-5
1.136,   1.119e-5
1.139,   1.094e-5
1.142,   1.077e-5
1.145,   1.062e-5
1.148,   1.048e-5
1.151,   1.040e-5
1.154,   1.031e-5
1.157,   1.030e-5
1.160,   1.023e-5
1.163,   1.019e-5
1.166,   1.018e-5
1.169,   1.018e-5
1.172,   1.018e-5
1.175,   1.015e-5
1.178,   1.021e-5
1.181,   1.021e-5
1.184,   1.025e-5
1.187,   1.030e-5
1.190,   1.037e-5
1.193,   1.038e-5
1.196,   1.043e-5
1.199,   1.052e-5
1.202,   1.055e-5
1.205,   1.066e-5
1.208,   1.071e-5
1.211,   1.082e-5
1.214,   1.088e-5
1.217,   1.096e-5
1.220,   1.103e-5
1.223,   1.113e-5
1.226,   1.120e-5
1.229,   1.134e-5
1.232,   1.145e-5
1.235,   1.153e-5
1.238,   1.165e-5
1.241,   1.177e-5
1.244,   1.184e-5
1.247,   1.193e-5
1.250,   1.205e-5
1.253,   1.216e-5
1.256,   1.226e-5
1.259,   1.238e-5
1.262,   1.251e-5
1.265,   1.260e-5
1.268,   1.268e-5
1.271,   1.281e-5
1.274,   1.292e-5
1.277,   1.304e-5
1.280,   1.315e-5
1.283,   1.326e-5
1.286,   1.340e-5
1.289,   1.348e-5
1.292,   1.359e-5
1.295,   1.372e-5
1.298,   1.385e-5
1.301,   1.400e-5
1.304,   1.413e-5
1.307,   1.427e-5
1.310,   1.440e-5
1.313,   1.456e-5
1.316,   1.471e-5
1.319,   1.489e-5
1.322,   1.503e-5
1.325,   1.527e-5
1.328,   1.542e-5
1.331,   1.563e-5
1.334,   1.584e-5
1.337,   1.609e-5
1.340,   1.631e-5
1.343,   1.659e-5
1.346,   1.683e-5
1.349,   1.718e-5
1.352,   1.750e-5
1.355,   1.786e-5
1.358,   1.827e-5
1.361,   1.865e-5
1.364,   1.908e-5
1.367,   1.955e-5
1.370,   2.006e-5
1.373,   2.064e-5
1.376,   2.124e-5
1.379,   2.189e-5
1.382,   2.260e-5
1.385,   2.333e-5
1.388,   2.414e-5
1.391,   2.503e-5
1.394,   2.600e-5
1.397,   2.710e-5
1.400,   2.828e-5
1.403,   2.961e-5
1.406,   3.114e-5
1.409,   3.282e-5
1.412,   3.474e-5
1.415,   3.687e-5
1.418,   3.917e-5
1.421,   4.196e-5
1.424,   4.514e-5
1.427,   4.887e-5
1.430,   5.301e-5
1.433,   5.771e-5
1.436,   6.306e-5
1.439,   6.931e-5
1.442,   7.644e-5
1.445,   8.443e-5
1.448,   9.346e-5
1.451,   1.037e-4
1.454,   1.153e-4
1.457,   1.281e-4
1.460,   1.425e-4
1.463,   1.587e-4
1.466,   1.766e-4
1.469,   1.964e-4
1.472,   2.187e-4
1.475,   2.434e-4
1.478,   2.702e-4
1.481,   2.999e-4
1.484,   3.323e-4
1.487,   3.686e-4
1.490,   4.077e-4
1.493,   4.495e-4
1.496,   4.948e-4
1.499,   5.432e-4
1.502,   5.961e-4
1.505,   6.534e-4
1.508,   7.128e-4
1.511,   7.769e-4
1.514,   8.446e-4
1.517,   9.154e-4
1.520,   9.899e-4
1.523,   1.068e-3
1.526,   1.149e-3
1.529,   1.233e-3
1.532,   1.322e-3
1.535,   1.420e-3
1.538,   1.518e-3
1.541,   1.617e-3
1.544,   1.719e-3
1.547,   1.824e-3
1.550,   1.932e-3
1.553,   2.051e-3
1.556,   2.166e-3
1.559,   2.286e-3
1.562,   2.408e-3
1.565,   2.528e-3
1.568,   2.652e-3
1.571,   2.774e-3
1.574,   2.902e-3
1.577,   3.036e-3
1.580,   3.169e-3
1.583,   3.306e-3
1.586,   3.447e-3
1.589,   3.597e-3
1.592,   3.734e-3
1.595,   3.896e-3
1.598,   4.043e-3
1.601,   4.186e-3
1.604,   4.334e-3
1.607,   4.482e-3
1.610,   4.663e-3
1.613,   4.806e-3
1.616,   4.967e-3
1.619,   5.119e-3
1.622,   5.264e-3
1.625,   5.438e-3
1.628,   5.607e-3
1.631,   5.759e-3
1.634,   5.901e-3
1.637,   6.065e-3
1.640,   6.216e-3
1.643,   6.392e-3
1.646,   6.532e-3
1.649,   6.669e-3
1.652,   6.841e-3
1.655,   6.995e-3
1.658,   7.145e-3
1.661,   7.256e-3
1.664,   7.457e-3
1.667,   7.581e-3
1.670,   8.564e-3
1.673,   8.710e-3
1.676,   8.729e-3
1.679,   8.840e-3
1.682,   8.872e-3
1.685,   9.214e-3
1.688,   9.222e-3
1.691,   9.340e-3
1.694,   9.431e-3
1.697,   9.572e-3
1.700,   9.624e-3
1.703,   9.643e-3
1.706,   9.751e-3
1.709,   9.857e-3
1.712,   1.000e-2
1.715,   1.006e-2
1.718,   1.006e-2
1.721,   1.006e-2
1.724,   1.006e-2
1.727,   1.006e-2
1.730,   1.006e-2
1.733,   1.006e-2
1.736,   1.006e-2
1.739,   1.006e-2
1.742,   1.006e-2
1.745,   1.006e-2
1.748,   1.006e-2
1.751,   1.006e-2
1.754,   1.006e-2
1.757,   1.006e-2
1.760,   1.006e-2
1.763,   1.006e-2
1.766,   1.006e-2
1.769,   1.006e-2
1.772,   1.006e-2
1.775,   1.006e-2
1.778,   1.006e-2
1.781,   1.006e-2
1.784,   1.006e-2
1.787,   1.006e-2
1.790,   1.006e-2
1.793,   1.006e-2
1.796,   1.006e-2
1.799,   1.006e-2