File: Experimental Records, Raw Data, and Supplementary Notes and Figures/batch3/final500/B3_500_VARIANCE_#1_Full(#9)-466mV.txt
Feb. 22, 2023   14:11:10
Linear Sweep Voltammetry
File: d:\current work\al_oer\electrochemical test data\batch 3\500\B3_500_VARIANCE_#1_Full(#9)-466mV.txt
Data Source:  Experiment
Instrument Model:  CHI660E
Header:
Note:

Init E (V) = 1.100

Final E (V) = 1.716

Scan Rate (V/s) = 0.010
Sample Interval (V) = 0.001
Quiet Time (sec) = 2
Sensitivity (A/V) = 0.001
Comp R (ohm) = 5.0

Results:

Channel 1:

Potential/V, Current/A
1.100,   1.217e-5
1.103,   1.052e-5
1.106,   9.218e-6
1.109,   8.268e-6
1.112,   7.617e-6
1.115,   7.024e-6
1.118,   6.591e-6
1.121,   6.249e-6
1.124,   5.954e-6
1.127,   5.748e-6
1.130,   5.503e-6
1.133,   5.329e-6
1.136,   5.134e-6
1.139,   4.982e-6
1.142,   4.888e-6
1.145,   4.811e-6
1.148,   4.685e-6
1.151,   4.618e-6
1.154,   4.558e-6
1.157,   4.485e-6
1.160,   4.474e-6
1.163,   4.411e-6
1.166,   4.353e-6
1.169,   4.311e-6
1.172,   4.286e-6
1.175,   4.286e-6
1.178,   4.223e-6
1.181,   4.214e-6
1.184,   4.199e-6
1.187,   4.202e-6
1.190,   4.191e-6
1.193,   4.157e-6
1.196,   4.181e-6
1.199,   4.151e-6
1.202,   4.160e-6
1.205,   4.153e-6
1.208,   4.163e-6
1.211,   4.183e-6
1.214,   4.183e-6
1.217,   4.198e-6
1.220,   4.212e-6
1.223,   4.217e-6
1.226,   4.214e-6
1.229,   4.236e-6
1.232,   4.221e-6
1.235,   4.245e-6
1.238,   4.250e-6
1.241,   4.277e-6
1.244,   4.270e-6
1.247,   4.323e-6
1.250,   4.349e-6
1.253,   4.351e-6
1.256,   4.362e-6
1.259,   4.398e-6
1.262,   4.388e-6
1.265,   4.424e-6
1.268,   4.448e-6
1.271,   4.461e-6
1.274,   4.507e-6
1.277,   4.551e-6
1.280,   4.551e-6
1.283,   4.592e-6
1.286,   4.627e-6
1.289,   4.669e-6
1.292,   4.704e-6
1.295,   4.739e-6
1.298,   4.769e-6
1.301,   4.821e-6
1.304,   4.866e-6
1.307,   4.908e-6
1.310,   4.961e-6
1.313,   4.997e-6
1.316,   5.061e-6
1.319,   5.093e-6
1.322,   5.169e-6
1.325,   5.218e-6
1.328,   5.272e-6
1.331,   5.316e-6
1.334,   5.401e-6
1.337,   5.453e-6
1.340,   5.528e-6
1.343,   5.582e-6
1.346,   5.703e-6
1.349,   5.762e-6
1.352,   5.815e-6
1.355,   5.914e-6
1.358,   5.970e-6
1.361,   6.072e-6
1.364,   6.153e-6
1.367,   6.246e-6
1.370,   6.352e-6
1.373,   6.416e-6
1.376,   6.531e-6
1.379,   6.641e-6
1.382,   6.744e-6
1.385,   6.876e-6
1.388,   7.012e-6
1.391,   7.055e-6
1.394,   7.194e-6
1.397,   7.371e-6
1.400,   7.476e-6
1.403,   7.622e-6
1.406,   7.779e-6
1.409,   7.933e-6
1.412,   8.107e-6
1.415,   8.310e-6
1.418,   8.427e-6
1.421,   8.651e-6
1.424,   8.847e-6
1.427,   9.118e-6
1.430,   9.387e-6
1.433,   9.705e-6
1.436,   1.006e-5
1.439,   1.037e-5
1.442,   1.079e-5
1.445,   1.122e-5
1.448,   1.174e-5
1.451,   1.229e-5
1.454,   1.294e-5
1.457,   1.362e-5
1.460,   1.437e-5
1.463,   1.526e-5
1.466,   1.622e-5
1.469,   1.727e-5
1.472,   1.844e-5
1.475,   1.972e-5
1.478,   2.122e-5
1.481,   2.278e-5
1.484,   2.455e-5
1.487,   2.644e-5
1.490,   2.858e-5
1.493,   3.099e-5
1.496,   3.338e-5
1.499,   3.615e-5
1.502,   3.904e-5
1.505,   4.236e-5
1.508,   4.588e-5
1.511,   4.977e-5
1.514,   5.398e-5
1.517,   5.851e-5
1.520,   6.355e-5
1.523,   6.893e-5
1.526,   7.471e-5
1.529,   8.105e-5
1.532,   8.784e-5
1.535,   9.506e-5
1.538,   1.029e-4
1.541,   1.113e-4
1.544,   1.205e-4
1.547,   1.303e-4
1.550,   1.407e-4
1.553,   1.521e-4
1.556,   1.643e-4
1.559,   1.771e-4
1.562,   1.911e-4
1.565,   2.059e-4
1.568,   2.217e-4
1.571,   2.390e-4
1.574,   2.573e-4
1.577,   2.770e-4
1.580,   2.981e-4
1.583,   3.206e-4
1.586,   3.442e-4
1.589,   3.696e-4
1.592,   3.959e-4
1.595,   4.245e-4
1.598,   4.546e-4
1.601,   4.867e-4
1.604,   5.201e-4
1.607,   5.553e-4
1.610,   5.924e-4
1.613,   6.312e-4
1.616,   6.720e-4
1.619,   7.149e-4
1.622,   7.609e-4
1.625,   8.076e-4
1.628,   8.550e-4
1.631,   9.041e-4
1.634,   9.546e-4
1.637,   1.007e-3
1.640,   1.060e-3
1.643,   1.114e-3
1.646,   1.170e-3
1.649,   1.226e-3
1.652,   1.282e-3
1.655,   1.338e-3
1.658,   1.394e-3
1.661,   1.450e-3
1.664,   1.508e-3
1.667,   1.562e-3
1.670,   1.612e-3
1.673,   1.661e-3
1.676,   1.709e-3
1.679,   1.753e-3
1.682,   1.791e-3
1.685,   1.833e-3
1.688,   1.871e-3
1.691,   1.900e-3
1.694,   1.932e-3
1.697,   1.959e-3
1.700,   1.982e-3
1.703,   2.005e-3
1.706,   2.027e-3
1.709,   2.046e-3
1.712,   2.065e-3
1.715,   2.079e-3
1.716,   2.083e-3