File: Experimental Records, Raw Data, and Supplementary Notes and Figures/batch3/final500/B3_BEST_500_#7_High_Quality(#20)-217mV.txt
Feb. 24, 2023   14:06:58
Linear Sweep Voltammetry
File: d:\current work\al_oer\electrochemical test data\batch 3\500\B3_BEST_500_#7_High_Quality(#20)-217mV.txt
Data Source:  Experiment
Instrument Model:  CHI660E
Header:
Note:

Init E (V) = 1.102

Final E (V) = 1.502

Scan Rate (V/s) = 0.010
Sample Interval (V) = 0.001
Quiet Time (sec) = 2
Sensitivity (A/V) = 0.001
Comp R (ohm) = 4.8

Results:

Channel 1:

Potential/V, Current/A
1.102,   7.912e-5
1.104,   9.854e-5
1.106,   9.189e-5
1.108,   8.672e-5
1.110,   8.284e-5
1.112,   8.001e-5
1.114,   7.766e-5
1.116,   7.566e-5
1.118,   7.405e-5
1.120,   7.306e-5
1.122,   7.212e-5
1.124,   7.118e-5
1.126,   7.040e-5
1.128,   7.011e-5
1.130,   6.975e-5
1.132,   6.920e-5
1.134,   6.887e-5
1.136,   6.897e-5
1.138,   6.883e-5
1.140,   6.847e-5
1.142,   6.853e-5
1.144,   6.861e-5
1.146,   6.869e-5
1.148,   6.873e-5
1.150,   6.866e-5
1.152,   6.896e-5
1.154,   6.909e-5
1.156,   6.912e-5
1.158,   6.921e-5
1.160,   6.970e-5
1.162,   6.984e-5
1.164,   6.983e-5
1.166,   7.008e-5
1.168,   7.070e-5
1.170,   7.087e-5
1.172,   7.106e-5
1.174,   7.134e-5
1.176,   7.174e-5
1.178,   7.204e-5
1.180,   7.221e-5
1.182,   7.233e-5
1.184,   7.296e-5
1.186,   7.341e-5
1.188,   7.350e-5
1.190,   7.359e-5
1.192,   7.425e-5
1.194,   7.455e-5
1.196,   7.462e-5
1.198,   7.491e-5
1.200,   7.564e-5
1.202,   7.584e-5
1.204,   7.592e-5
1.206,   7.622e-5
1.208,   7.669e-5
1.210,   7.687e-5
1.212,   7.711e-5
1.214,   7.700e-5
1.216,   7.764e-5
1.218,   7.793e-5
1.220,   7.779e-5
1.222,   7.799e-5
1.224,   7.850e-5
1.226,   7.888e-5
1.228,   7.864e-5
1.230,   7.858e-5
1.232,   7.918e-5
1.234,   7.935e-5
1.236,   7.908e-5
1.238,   7.936e-5
1.240,   7.961e-5
1.242,   7.979e-5
1.244,   7.960e-5
1.246,   7.957e-5
1.248,   8.002e-5
1.250,   8.004e-5
1.252,   7.983e-5
1.254,   7.973e-5
1.256,   8.013e-5
1.258,   8.021e-5
1.260,   7.987e-5
1.262,   7.982e-5
1.264,   8.031e-5
1.266,   8.023e-5
1.268,   8.003e-5
1.270,   7.997e-5
1.272,   8.037e-5
1.274,   8.028e-5
1.276,   8.018e-5
1.278,   7.993e-5
1.280,   8.039e-5
1.282,   8.037e-5
1.284,   8.012e-5
1.286,   7.988e-5
1.288,   8.025e-5
1.290,   8.028e-5
1.292,   8.018e-5
1.294,   8.006e-5
1.296,   8.047e-5
1.298,   8.043e-5
1.300,   8.023e-5
1.302,   8.030e-5
1.304,   8.066e-5
1.306,   8.077e-5
1.308,   8.066e-5
1.310,   8.064e-5
1.312,   8.099e-5
1.314,   8.117e-5
1.316,   8.106e-5
1.318,   8.114e-5
1.320,   8.159e-5
1.322,   8.179e-5
1.324,   8.171e-5
1.326,   8.182e-5
1.328,   8.248e-5
1.330,   8.262e-5
1.332,   8.268e-5
1.334,   8.308e-5
1.336,   8.352e-5
1.338,   8.379e-5
1.340,   8.409e-5
1.342,   8.437e-5
1.344,   8.508e-5
1.346,   8.557e-5
1.348,   8.575e-5
1.350,   8.624e-5
1.352,   8.723e-5
1.354,   8.788e-5
1.356,   8.827e-5
1.358,   8.897e-5
1.360,   9.019e-5
1.362,   9.111e-5
1.364,   9.199e-5
1.366,   9.331e-5
1.368,   9.476e-5
1.370,   9.642e-5
1.372,   9.806e-5
1.374,   9.987e-5
1.376,   1.025e-4
1.378,   1.053e-4
1.380,   1.084e-4
1.382,   1.116e-4
1.384,   1.162e-4
1.386,   1.211e-4
1.388,   1.266e-4
1.390,   1.331e-4
1.392,   1.412e-4
1.394,   1.499e-4
1.396,   1.599e-4
1.398,   1.717e-4
1.400,   1.855e-4
1.402,   2.013e-4
1.404,   2.192e-4
1.406,   2.396e-4
1.408,   2.635e-4
1.410,   2.904e-4
1.412,   3.206e-4
1.414,   3.549e-4
1.416,   3.941e-4
1.418,   4.381e-4
1.420,   4.867e-4
1.422,   5.413e-4
1.424,   6.022e-4
1.426,   6.694e-4
1.428,   7.438e-4
1.430,   8.267e-4
1.432,   9.167e-4
1.434,   1.014e-3
1.436,   1.119e-3
1.438,   1.233e-3
1.440,   1.357e-3
1.442,   1.487e-3
1.444,   1.626e-3
1.446,   1.783e-3
1.448,   1.940e-3
1.450,   2.119e-3
1.452,   2.311e-3
1.454,   2.500e-3
1.456,   2.715e-3
1.458,   2.934e-3
1.460,   3.181e-3
1.462,   3.448e-3
1.464,   3.719e-3
1.466,   3.995e-3
1.468,   4.276e-3
1.470,   4.675e-3
1.472,   5.041e-3
1.474,   5.441e-3
1.476,   5.718e-3
1.478,   5.993e-3
1.480,   6.303e-3
1.482,   6.558e-3
1.484,   7.210e-3
1.486,   7.779e-3
1.488,   8.274e-3
1.490,   8.482e-3
1.492,   9.054e-3
1.494,   1.007e-2
1.496,   1.007e-2
1.498,   1.007e-2
1.500,   1.007e-2
1.502,   1.007e-2