File: Experimental Records, Raw Data, and Supplementary Notes and Figures/batch3/final500/B3_BEST_500_#3_High_Quality(#16)-238mV.txt
Feb. 24, 2023   13:19:43
Linear Sweep Voltammetry
File: d:\current work\al_oer\electrochemical test data\batch 3\500\B3_BEST_500_#3_High_Quality(#16)-238mV.txt
Data Source:  Experiment
Instrument Model:  CHI660E
Header:
Note:

Init E (V) = 1.099

Final E (V) = 1.541

Scan Rate (V/s) = 0.010
Sample Interval (V) = 0.001
Quiet Time (sec) = 2
Sensitivity (A/V) = 0.001
Comp R (ohm) = 4.6

Results:

Channel 1:

Potential/V, Current/A
1.099,   1.223e-4
1.101,   1.244e-4
1.103,   1.128e-4
1.105,   1.037e-4
1.107,   9.667e-5
1.109,   9.115e-5
1.111,   8.655e-5
1.113,   8.263e-5
1.115,   7.939e-5
1.117,   7.685e-5
1.119,   7.460e-5
1.121,   7.248e-5
1.123,   7.067e-5
1.125,   6.946e-5
1.127,   6.817e-5
1.129,   6.688e-5
1.131,   6.591e-5
1.133,   6.527e-5
1.135,   6.443e-5
1.137,   6.382e-5
1.139,   6.315e-5
1.141,   6.279e-5
1.143,   6.241e-5
1.145,   6.204e-5
1.147,   6.163e-5
1.149,   6.148e-5
1.151,   6.133e-5
1.153,   6.100e-5
1.155,   6.081e-5
1.157,   6.093e-5
1.159,   6.086e-5
1.161,   6.060e-5
1.163,   6.055e-5
1.165,   6.074e-5
1.167,   6.076e-5
1.169,   6.066e-5
1.171,   6.083e-5
1.173,   6.100e-5
1.175,   6.094e-5
1.177,   6.101e-5
1.179,   6.103e-5
1.181,   6.120e-5
1.183,   6.144e-5
1.185,   6.125e-5
1.187,   6.138e-5
1.189,   6.166e-5
1.191,   6.183e-5
1.193,   6.177e-5
1.195,   6.183e-5
1.197,   6.215e-5
1.199,   6.216e-5
1.201,   6.212e-5
1.203,   6.216e-5
1.205,   6.241e-5
1.207,   6.246e-5
1.209,   6.247e-5
1.211,   6.235e-5
1.213,   6.260e-5
1.215,   6.271e-5
1.217,   6.257e-5
1.219,   6.237e-5
1.221,   6.266e-5
1.223,   6.271e-5
1.225,   6.243e-5
1.227,   6.233e-5
1.229,   6.248e-5
1.231,   6.251e-5
1.233,   6.236e-5
1.235,   6.221e-5
1.237,   6.242e-5
1.239,   6.229e-5
1.241,   6.201e-5
1.243,   6.178e-5
1.245,   6.201e-5
1.247,   6.195e-5
1.249,   6.163e-5
1.251,   6.153e-5
1.253,   6.163e-5
1.255,   6.150e-5
1.257,   6.122e-5
1.259,   6.110e-5
1.261,   6.121e-5
1.263,   6.116e-5
1.265,   6.089e-5
1.267,   6.084e-5
1.269,   6.085e-5
1.271,   6.070e-5
1.273,   6.055e-5
1.275,   6.038e-5
1.277,   6.046e-5
1.279,   6.044e-5
1.281,   6.026e-5
1.283,   6.007e-5
1.285,   6.030e-5
1.287,   6.027e-5
1.289,   5.987e-5
1.291,   5.994e-5
1.293,   6.026e-5
1.295,   6.009e-5
1.297,   5.989e-5
1.299,   6.003e-5
1.301,   6.007e-5
1.303,   6.019e-5
1.305,   6.007e-5
1.307,   5.989e-5
1.309,   6.026e-5
1.311,   6.025e-5
1.313,   6.016e-5
1.315,   6.017e-5
1.317,   6.045e-5
1.319,   6.057e-5
1.321,   6.051e-5
1.323,   6.058e-5
1.325,   6.099e-5
1.327,   6.110e-5
1.329,   6.099e-5
1.331,   6.121e-5
1.333,   6.149e-5
1.335,   6.180e-5
1.337,   6.193e-5
1.339,   6.197e-5
1.341,   6.239e-5
1.343,   6.257e-5
1.345,   6.276e-5
1.347,   6.303e-5
1.349,   6.351e-5
1.351,   6.392e-5
1.353,   6.405e-5
1.355,   6.453e-5
1.357,   6.516e-5
1.359,   6.565e-5
1.361,   6.605e-5
1.363,   6.661e-5
1.365,   6.741e-5
1.367,   6.813e-5
1.369,   6.886e-5
1.371,   6.955e-5
1.373,   7.076e-5
1.375,   7.192e-5
1.377,   7.290e-5
1.379,   7.428e-5
1.381,   7.618e-5
1.383,   7.782e-5
1.385,   7.958e-5
1.387,   8.184e-5
1.389,   8.460e-5
1.391,   8.744e-5
1.393,   9.043e-5
1.395,   9.412e-5
1.397,   9.836e-5
1.399,   1.031e-4
1.401,   1.083e-4
1.403,   1.140e-4
1.405,   1.211e-4
1.407,   1.288e-4
1.409,   1.372e-4
1.411,   1.470e-4
1.413,   1.583e-4
1.415,   1.710e-4
1.417,   1.846e-4
1.419,   2.002e-4
1.421,   2.186e-4
1.423,   2.385e-4
1.425,   2.604e-4
1.427,   2.862e-4
1.429,   3.137e-4
1.431,   3.445e-4
1.433,   3.787e-4
1.435,   4.166e-4
1.437,   4.587e-4
1.439,   5.046e-4
1.441,   5.553e-4
1.443,   6.134e-4
1.445,   6.748e-4
1.447,   7.424e-4
1.449,   8.135e-4
1.451,   8.956e-4
1.453,   9.802e-4
1.455,   1.076e-3
1.457,   1.181e-3
1.459,   1.290e-3
1.461,   1.408e-3
1.463,   1.534e-3
1.465,   1.669e-3
1.467,   1.812e-3
1.469,   1.960e-3
1.471,   2.115e-3
1.473,   2.288e-3
1.475,   2.461e-3
1.477,   2.639e-3
1.479,   2.817e-3
1.481,   3.012e-3
1.483,   3.248e-3
1.485,   3.498e-3
1.487,   3.697e-3
1.489,   3.890e-3
1.491,   4.113e-3
1.493,   4.313e-3
1.495,   4.555e-3
1.497,   4.748e-3
1.499,   5.024e-3
1.501,   5.579e-3
1.503,   5.724e-3
1.505,   5.961e-3
1.507,   6.116e-3
1.509,   6.289e-3
1.511,   6.494e-3
1.513,   6.821e-3
1.515,   7.044e-3
1.517,   7.352e-3
1.519,   7.814e-3
1.521,   8.078e-3
1.523,   8.388e-3
1.525,   8.720e-3
1.527,   9.179e-3
1.529,   9.426e-3
1.531,   9.605e-3
1.533,   9.982e-3
1.535,   1.007e-2
1.537,   1.007e-2
1.539,   1.007e-2
1.541,   1.007e-2