File: Experimental Records, Raw Data, and Supplementary Notes and Figures/batch3/final500/B3_BEST_500_#8_Full-275mV.txt
Feb. 22, 2023   13:48:28
Linear Sweep Voltammetry
File: d:\current work\al_oer\electrochemical test data\batch 3\500\B3_BEST_500_#8_Full-275mV.txt
Data Source:  Experiment
Instrument Model:  CHI660E
Header:
Note:

Init E (V) = 1.099

Final E (V) = 1.717

Scan Rate (V/s) = 0.010
Sample Interval (V) = 0.001
Quiet Time (sec) = 2
Sensitivity (A/V) = 0.001
Comp R (ohm) = 5.0

Results:

Channel 1:

Potential/V, Current/A
1.099,   5.066e-4
1.102,   4.048e-4
1.105,   3.337e-4
1.108,   2.821e-4
1.111,   2.442e-4
1.114,   2.149e-4
1.117,   1.917e-4
1.120,   1.737e-4
1.123,   1.587e-4
1.126,   1.465e-4
1.129,   1.361e-4
1.132,   1.276e-4
1.135,   1.203e-4
1.138,   1.140e-4
1.141,   1.086e-4
1.144,   1.041e-4
1.147,   1.003e-4
1.150,   9.694e-5
1.153,   9.376e-5
1.156,   9.120e-5
1.159,   8.875e-5
1.162,   8.661e-5
1.165,   8.465e-5
1.168,   8.298e-5
1.171,   8.159e-5
1.174,   8.029e-5
1.177,   7.914e-5
1.180,   7.811e-5
1.183,   7.716e-5
1.186,   7.640e-5
1.189,   7.551e-5
1.192,   7.494e-5
1.195,   7.419e-5
1.198,   7.361e-5
1.201,   7.308e-5
1.204,   7.268e-5
1.207,   7.254e-5
1.210,   7.213e-5
1.213,   7.166e-5
1.216,   7.134e-5
1.219,   7.099e-5
1.222,   7.080e-5
1.225,   7.048e-5
1.228,   7.021e-5
1.231,   7.009e-5
1.234,   6.989e-5
1.237,   6.972e-5
1.240,   6.962e-5
1.243,   6.943e-5
1.246,   6.935e-5
1.249,   6.936e-5
1.252,   6.919e-5
1.255,   6.901e-5
1.258,   6.899e-5
1.261,   6.898e-5
1.264,   6.888e-5
1.267,   6.884e-5
1.270,   6.883e-5
1.273,   6.880e-5
1.276,   6.869e-5
1.279,   6.872e-5
1.282,   6.878e-5
1.285,   6.869e-5
1.288,   6.860e-5
1.291,   6.859e-5
1.294,   6.869e-5
1.297,   6.882e-5
1.300,   6.891e-5
1.303,   6.893e-5
1.306,   6.904e-5
1.309,   6.910e-5
1.312,   6.923e-5
1.315,   6.933e-5
1.318,   6.957e-5
1.321,   6.973e-5
1.324,   7.002e-5
1.327,   7.032e-5
1.330,   7.056e-5
1.333,   7.084e-5
1.336,   7.115e-5
1.339,   7.165e-5
1.342,   7.200e-5
1.345,   7.254e-5
1.348,   7.307e-5
1.351,   7.370e-5
1.354,   7.450e-5
1.357,   7.526e-5
1.360,   7.607e-5
1.363,   7.721e-5
1.366,   7.835e-5
1.369,   7.959e-5
1.372,   8.111e-5
1.375,   8.292e-5
1.378,   8.511e-5
1.381,   8.751e-5
1.384,   9.036e-5
1.387,   9.385e-5
1.390,   9.785e-5
1.393,   1.026e-4
1.396,   1.082e-4
1.399,   1.148e-4
1.402,   1.224e-4
1.405,   1.314e-4
1.408,   1.414e-4
1.411,   1.529e-4
1.414,   1.663e-4
1.417,   1.808e-4
1.420,   1.973e-4
1.423,   2.156e-4
1.426,   2.362e-4
1.429,   2.586e-4
1.432,   2.837e-4
1.435,   3.110e-4
1.438,   3.405e-4
1.441,   3.729e-4
1.444,   4.100e-4
1.447,   4.475e-4
1.450,   4.900e-4
1.453,   5.343e-4
1.456,   5.835e-4
1.459,   6.356e-4
1.462,   6.916e-4
1.465,   7.516e-4
1.468,   8.159e-4
1.471,   8.843e-4
1.474,   9.567e-4
1.477,   1.032e-3
1.480,   1.113e-3
1.483,   1.197e-3
1.486,   1.286e-3
1.489,   1.379e-3
1.492,   1.476e-3
1.495,   1.575e-3
1.498,   1.680e-3
1.501,   1.783e-3
1.504,   1.893e-3
1.507,   2.006e-3
1.510,   2.122e-3
1.513,   2.241e-3
1.516,   2.360e-3
1.519,   2.488e-3
1.522,   2.610e-3
1.525,   2.736e-3
1.528,   2.861e-3
1.531,   2.989e-3
1.534,   3.108e-3
1.537,   3.238e-3
1.540,   3.368e-3
1.543,   3.490e-3
1.546,   3.613e-3
1.549,   3.735e-3
1.552,   3.853e-3
1.555,   3.971e-3
1.558,   4.082e-3
1.561,   4.199e-3
1.564,   4.308e-3
1.567,   4.416e-3
1.570,   4.530e-3
1.573,   4.765e-3
1.576,   4.878e-3
1.579,   4.967e-3
1.582,   5.059e-3
1.585,   5.156e-3
1.588,   5.266e-3
1.591,   5.350e-3
1.594,   5.433e-3
1.597,   5.546e-3
1.600,   5.675e-3
1.603,   5.755e-3
1.606,   5.818e-3
1.609,   5.908e-3
1.612,   5.974e-3
1.615,   6.035e-3
1.618,   6.108e-3
1.621,   6.171e-3
1.624,   6.224e-3
1.627,   6.255e-3
1.630,   6.298e-3
1.633,   6.351e-3
1.636,   6.384e-3
1.639,   6.410e-3
1.642,   6.760e-3
1.645,   6.759e-3
1.648,   6.762e-3
1.651,   6.768e-3
1.654,   6.780e-3
1.657,   6.776e-3
1.660,   6.795e-3
1.663,   6.816e-3
1.666,   6.816e-3
1.669,   6.932e-3
1.672,   6.925e-3
1.675,   7.155e-3
1.678,   7.293e-3
1.681,   7.230e-3
1.684,   7.173e-3
1.687,   7.200e-3
1.690,   7.201e-3
1.693,   7.148e-3
1.696,   7.228e-3
1.699,   7.174e-3
1.702,   7.106e-3
1.705,   7.066e-3
1.708,   7.014e-3
1.711,   6.983e-3
1.714,   7.121e-3
1.717,   7.061e-3