File: Experimental Records, Raw Data, and Supplementary Notes and Figures/batch3/final500/B3_BEST_500_#5_High_Quality(#18)-220mV.txt
Feb. 22, 2023   14:51:05
Linear Sweep Voltammetry
File: d:\current work\al_oer\electrochemical test data\batch 3\500\B3_BEST_500_#5_High_Quality(#18)-220mV.txt
Data Source:  Experiment
Instrument Model:  CHI660E
Header:
Note:

Init E (V) = 1.098

Final E (V) = 1.507

Scan Rate (V/s) = 0.010
Sample Interval (V) = 0.001
Quiet Time (sec) = 2
Sensitivity (A/V) = 0.001
Comp R (ohm) = 6.4

Results:

Channel 1:

Potential/V, Current/A
1.098,   6.576e-4
1.100,   5.924e-4
1.102,   5.334e-4
1.104,   4.823e-4
1.106,   4.430e-4
1.108,   4.074e-4
1.110,   3.758e-4
1.112,   3.509e-4
1.114,   3.289e-4
1.116,   3.103e-4
1.118,   2.930e-4
1.120,   2.783e-4
1.122,   2.659e-4
1.124,   2.542e-4
1.126,   2.442e-4
1.128,   2.370e-4
1.130,   2.284e-4
1.132,   2.218e-4
1.134,   2.165e-4
1.136,   2.115e-4
1.138,   2.069e-4
1.140,   2.027e-4
1.142,   1.992e-4
1.144,   1.962e-4
1.146,   1.932e-4
1.148,   1.921e-4
1.150,   1.899e-4
1.152,   1.877e-4
1.154,   1.860e-4
1.156,   1.846e-4
1.158,   1.838e-4
1.160,   1.838e-4
1.162,   1.831e-4
1.164,   1.827e-4
1.166,   1.829e-4
1.168,   1.824e-4
1.170,   1.828e-4
1.172,   1.828e-4
1.174,   1.830e-4
1.176,   1.829e-4
1.178,   1.832e-4
1.180,   1.837e-4
1.182,   1.841e-4
1.184,   1.848e-4
1.186,   1.853e-4
1.188,   1.859e-4
1.190,   1.864e-4
1.192,   1.874e-4
1.194,   1.883e-4
1.196,   1.890e-4
1.198,   1.898e-4
1.200,   1.907e-4
1.202,   1.917e-4
1.204,   1.926e-4
1.206,   1.935e-4
1.208,   1.942e-4
1.210,   1.948e-4
1.212,   1.957e-4
1.214,   1.964e-4
1.216,   1.970e-4
1.218,   1.978e-4
1.220,   1.983e-4
1.222,   1.985e-4
1.224,   1.989e-4
1.226,   1.994e-4
1.228,   2.002e-4
1.230,   2.007e-4
1.232,   2.011e-4
1.234,   2.016e-4
1.236,   2.020e-4
1.238,   2.021e-4
1.240,   2.020e-4
1.242,   2.022e-4
1.244,   2.024e-4
1.246,   2.024e-4
1.248,   2.025e-4
1.250,   2.022e-4
1.252,   2.021e-4
1.254,   2.025e-4
1.256,   2.023e-4
1.258,   2.016e-4
1.260,   2.016e-4
1.262,   2.014e-4
1.264,   2.007e-4
1.266,   2.008e-4
1.268,   2.001e-4
1.270,   1.998e-4
1.272,   1.993e-4
1.274,   1.985e-4
1.276,   1.979e-4
1.278,   1.973e-4
1.280,   1.968e-4
1.282,   1.959e-4
1.284,   1.955e-4
1.286,   1.946e-4
1.288,   1.938e-4
1.290,   1.934e-4
1.292,   1.927e-4
1.294,   1.916e-4
1.296,   1.906e-4
1.298,   1.898e-4
1.300,   1.884e-4
1.302,   1.880e-4
1.304,   1.872e-4
1.306,   1.861e-4
1.308,   1.856e-4
1.310,   1.849e-4
1.312,   1.840e-4
1.314,   1.832e-4
1.316,   1.826e-4
1.318,   1.820e-4
1.320,   1.816e-4
1.322,   1.809e-4
1.324,   1.812e-4
1.326,   1.805e-4
1.328,   1.801e-4
1.330,   1.795e-4
1.332,   1.792e-4
1.334,   1.790e-4
1.336,   1.785e-4
1.338,   1.782e-4
1.340,   1.783e-4
1.342,   1.783e-4
1.344,   1.784e-4
1.346,   1.785e-4
1.348,   1.789e-4
1.350,   1.794e-4
1.352,   1.796e-4
1.354,   1.803e-4
1.356,   1.813e-4
1.358,   1.826e-4
1.360,   1.833e-4
1.362,   1.849e-4
1.364,   1.860e-4
1.366,   1.873e-4
1.368,   1.894e-4
1.370,   1.903e-4
1.372,   1.925e-4
1.374,   1.956e-4
1.376,   1.980e-4
1.378,   2.019e-4
1.380,   2.054e-4
1.382,   2.089e-4
1.384,   2.110e-4
1.386,   2.176e-4
1.388,   2.225e-4
1.390,   2.291e-4
1.392,   2.369e-4
1.394,   2.438e-4
1.396,   2.544e-4
1.398,   2.646e-4
1.400,   2.794e-4
1.402,   2.915e-4
1.404,   3.095e-4
1.406,   3.300e-4
1.408,   3.517e-4
1.410,   3.754e-4
1.412,   4.032e-4
1.414,   4.286e-4
1.416,   4.608e-4
1.418,   4.972e-4
1.420,   5.352e-4
1.422,   5.795e-4
1.424,   6.296e-4
1.426,   6.814e-4
1.428,   7.512e-4
1.430,   8.219e-4
1.432,   8.908e-4
1.434,   9.727e-4
1.436,   1.055e-3
1.438,   1.146e-3
1.440,   1.249e-3
1.442,   1.355e-3
1.444,   1.476e-3
1.446,   1.601e-3
1.448,   1.729e-3
1.450,   1.875e-3
1.452,   2.033e-3
1.454,   2.214e-3
1.456,   2.396e-3
1.458,   2.594e-3
1.460,   2.822e-3
1.462,   3.067e-3
1.464,   3.302e-3
1.466,   3.548e-3
1.468,   3.840e-3
1.470,   4.123e-3
1.472,   4.436e-3
1.474,   4.789e-3
1.476,   5.118e-3
1.478,   5.532e-3
1.480,   5.949e-3
1.482,   6.345e-3
1.484,   6.767e-3
1.486,   7.208e-3
1.488,   7.656e-3
1.490,   8.099e-3
1.492,   8.547e-3
1.494,   9.095e-3
1.496,   1.006e-2
1.498,   1.006e-2
1.500,   1.006e-2
1.502,   1.006e-2
1.504,   1.006e-2
1.506,   1.006e-2
1.507,   1.006e-2