File: Experimental Records, Raw Data, and Supplementary Notes and Figures/batch3/final500/B3_BEST_500_#5_Full-184mV.txt
Feb. 22, 2023   13:22:16
Linear Sweep Voltammetry
File: d:\current work\al_oer\electrochemical test data\batch 3\500\B3_BEST_500_#5_Full-184mV.txt
Data Source:  Experiment
Instrument Model:  CHI660E
Header:
Note:

Init E (V) = 1.099

Final E (V) = 1.448

Scan Rate (V/s) = 0.010
Sample Interval (V) = 0.001
Quiet Time (sec) = 2
Sensitivity (A/V) = 0.001
Comp R (ohm) = 5.6

Results:

Channel 1:

Potential/V, Current/A
1.099,   2.992e-4
1.101,   2.827e-4
1.103,   2.454e-4
1.105,   2.193e-4
1.107,   2.018e-4
1.109,   1.887e-4
1.111,   1.786e-4
1.113,   1.707e-4
1.115,   1.641e-4
1.117,   1.595e-4
1.119,   1.554e-4
1.121,   1.516e-4
1.123,   1.485e-4
1.125,   1.466e-4
1.127,   1.444e-4
1.129,   1.426e-4
1.131,   1.410e-4
1.133,   1.404e-4
1.135,   1.391e-4
1.137,   1.378e-4
1.139,   1.373e-4
1.141,   1.368e-4
1.143,   1.363e-4
1.145,   1.357e-4
1.147,   1.351e-4
1.149,   1.352e-4
1.151,   1.348e-4
1.153,   1.345e-4
1.155,   1.342e-4
1.157,   1.346e-4
1.159,   1.345e-4
1.161,   1.343e-4
1.163,   1.341e-4
1.165,   1.350e-4
1.167,   1.348e-4
1.169,   1.345e-4
1.171,   1.349e-4
1.173,   1.353e-4
1.175,   1.354e-4
1.177,   1.353e-4
1.179,   1.355e-4
1.181,   1.366e-4
1.183,   1.361e-4
1.185,   1.369e-4
1.187,   1.353e-4
1.189,   1.375e-4
1.191,   1.391e-4
1.193,   1.393e-4
1.195,   1.395e-4
1.197,   1.389e-4
1.199,   1.366e-4
1.201,   1.404e-4
1.203,   1.385e-4
1.205,   1.413e-4
1.207,   1.393e-4
1.209,   1.396e-4
1.211,   1.416e-4
1.213,   1.419e-4
1.215,   1.413e-4
1.217,   1.425e-4
1.219,   1.409e-4
1.221,   1.372e-4
1.223,   1.451e-4
1.225,   1.422e-4
1.227,   1.449e-4
1.229,   1.505e-4
1.231,   1.423e-4
1.233,   1.445e-4
1.235,   1.430e-4
1.237,   1.489e-4
1.239,   1.479e-4
1.241,   1.410e-4
1.243,   1.507e-4
1.245,   1.501e-4
1.247,   1.445e-4
1.249,   1.413e-4
1.251,   1.537e-4
1.253,   1.578e-4
1.255,   1.503e-4
1.257,   1.502e-4
1.259,   1.445e-4
1.261,   1.409e-4
1.263,   1.437e-4
1.265,   1.459e-4
1.267,   1.435e-4
1.269,   1.464e-4
1.271,   1.545e-4
1.273,   1.623e-4
1.275,   1.622e-4
1.277,   1.530e-4
1.279,   1.470e-4
1.281,   1.554e-4
1.283,   1.634e-4
1.285,   1.495e-4
1.287,   1.549e-4
1.289,   1.625e-4
1.291,   1.536e-4
1.293,   1.689e-4
1.295,   1.525e-4
1.297,   1.665e-4
1.299,   1.601e-4
1.301,   1.626e-4
1.303,   1.641e-4
1.305,   1.589e-4
1.307,   1.649e-4
1.309,   1.685e-4
1.311,   1.666e-4
1.313,   1.628e-4
1.315,   1.671e-4
1.317,   1.676e-4
1.319,   1.700e-4
1.321,   1.733e-4
1.323,   1.732e-4
1.325,   1.741e-4
1.327,   1.745e-4
1.329,   1.791e-4
1.331,   1.791e-4
1.333,   1.737e-4
1.335,   1.793e-4
1.337,   1.901e-4
1.339,   1.786e-4
1.341,   1.910e-4
1.343,   1.938e-4
1.345,   1.926e-4
1.347,   1.939e-4
1.349,   2.087e-4
1.351,   1.902e-4
1.353,   2.090e-4
1.355,   2.236e-4
1.357,   2.183e-4
1.359,   2.092e-4
1.361,   2.104e-4
1.363,   2.184e-4
1.365,   2.257e-4
1.367,   2.324e-4
1.369,   2.433e-4
1.371,   2.641e-4
1.373,   2.950e-4
1.375,   3.049e-4
1.377,   2.966e-4
1.379,   3.305e-4
1.381,   3.593e-4
1.383,   3.632e-4
1.385,   4.157e-4
1.387,   4.251e-4
1.389,   4.793e-4
1.391,   5.214e-4
1.393,   5.582e-4
1.395,   6.294e-4
1.397,   6.995e-4
1.399,   7.693e-4
1.401,   8.531e-4
1.403,   9.542e-4
1.405,   1.071e-3
1.407,   1.203e-3
1.409,   1.350e-3
1.411,   1.520e-3
1.413,   1.709e-3
1.415,   1.916e-3
1.417,   2.145e-3
1.419,   2.431e-3
1.421,   2.704e-3
1.423,   3.056e-3
1.425,   3.425e-3
1.427,   3.923e-3
1.429,   4.458e-3
1.431,   5.056e-3
1.433,   5.722e-3
1.435,   6.544e-3
1.437,   7.358e-3
1.439,   8.378e-3
1.441,   9.354e-3
1.443,   1.006e-2
1.445,   1.006e-2
1.447,   1.006e-2
1.448,   1.006e-2