File: Experimental Records, Raw Data, and Supplementary Notes and Figures/batch3/final500/B3_BEST_500_#1_Full-244mV.txt
Feb. 22, 2023   12:48:57
Linear Sweep Voltammetry
File: d:\current work\al_oer\electrochemical test data\batch 3\500\B3_BEST_500_#1_Full-244mV.txt
Data Source:  Experiment
Instrument Model:  CHI660E
Header:
Note:

Init E (V) = 1.099

Final E (V) = 1.525

Scan Rate (V/s) = 0.010
Sample Interval (V) = 0.001
Quiet Time (sec) = 2
Sensitivity (A/V) = 0.001
Comp R (ohm) = 5.2

Results:

Channel 1:

Potential/V, Current/A
1.099,   7.934e-5
1.101,   8.129e-5
1.103,   7.473e-5
1.105,   6.936e-5
1.107,   6.522e-5
1.109,   6.177e-5
1.111,   5.880e-5
1.113,   5.631e-5
1.115,   5.422e-5
1.117,   5.258e-5
1.119,   5.114e-5
1.121,   4.960e-5
1.123,   4.846e-5
1.125,   4.753e-5
1.127,   4.667e-5
1.129,   4.580e-5
1.131,   4.513e-5
1.133,   4.477e-5
1.135,   4.417e-5
1.137,   4.359e-5
1.139,   4.336e-5
1.141,   4.314e-5
1.143,   4.282e-5
1.145,   4.266e-5
1.147,   4.233e-5
1.149,   4.235e-5
1.151,   4.223e-5
1.153,   4.205e-5
1.155,   4.198e-5
1.157,   4.208e-5
1.159,   4.208e-5
1.161,   4.203e-5
1.163,   4.203e-5
1.165,   4.232e-5
1.167,   4.235e-5
1.169,   4.233e-5
1.171,   4.264e-5
1.173,   4.277e-5
1.175,   4.291e-5
1.177,   4.303e-5
1.179,   4.312e-5
1.181,   4.344e-5
1.183,   4.366e-5
1.185,   4.366e-5
1.187,   4.389e-5
1.189,   4.426e-5
1.191,   4.433e-5
1.193,   4.446e-5
1.195,   4.462e-5
1.197,   4.504e-5
1.199,   4.516e-5
1.201,   4.525e-5
1.203,   4.548e-5
1.205,   4.572e-5
1.207,   4.571e-5
1.209,   4.597e-5
1.211,   4.595e-5
1.213,   4.630e-5
1.215,   4.632e-5
1.217,   4.633e-5
1.219,   4.647e-5
1.221,   4.669e-5
1.223,   4.670e-5
1.225,   4.661e-5
1.227,   4.671e-5
1.229,   4.695e-5
1.231,   4.684e-5
1.233,   4.678e-5
1.235,   4.698e-5
1.237,   4.706e-5
1.239,   4.692e-5
1.241,   4.688e-5
1.243,   4.681e-5
1.245,   4.694e-5
1.247,   4.686e-5
1.249,   4.663e-5
1.251,   4.670e-5
1.253,   4.676e-5
1.255,   4.668e-5
1.257,   4.655e-5
1.259,   4.642e-5
1.261,   4.669e-5
1.263,   4.643e-5
1.265,   4.634e-5
1.267,   4.633e-5
1.269,   4.643e-5
1.271,   4.626e-5
1.273,   4.630e-5
1.275,   4.615e-5
1.277,   4.624e-5
1.279,   4.612e-5
1.281,   4.603e-5
1.283,   4.594e-5
1.285,   4.615e-5
1.287,   4.605e-5
1.289,   4.591e-5
1.291,   4.588e-5
1.293,   4.613e-5
1.295,   4.613e-5
1.297,   4.588e-5
1.299,   4.612e-5
1.301,   4.623e-5
1.303,   4.620e-5
1.305,   4.618e-5
1.307,   4.629e-5
1.309,   4.657e-5
1.311,   4.650e-5
1.313,   4.646e-5
1.315,   4.655e-5
1.317,   4.686e-5
1.319,   4.686e-5
1.321,   4.696e-5
1.323,   4.705e-5
1.325,   4.757e-5
1.327,   4.741e-5
1.329,   4.747e-5
1.331,   4.760e-5
1.333,   4.792e-5
1.335,   4.803e-5
1.337,   4.826e-5
1.339,   4.816e-5
1.341,   4.858e-5
1.343,   4.870e-5
1.345,   4.864e-5
1.347,   4.888e-5
1.349,   4.927e-5
1.351,   4.938e-5
1.353,   4.947e-5
1.355,   4.962e-5
1.357,   5.008e-5
1.359,   5.018e-5
1.361,   5.028e-5
1.363,   5.083e-5
1.365,   5.110e-5
1.367,   5.133e-5
1.369,   5.164e-5
1.371,   5.200e-5
1.373,   5.269e-5
1.375,   5.322e-5
1.377,   5.365e-5
1.379,   5.427e-5
1.381,   5.516e-5
1.383,   5.599e-5
1.385,   5.680e-5
1.387,   5.779e-5
1.389,   5.941e-5
1.391,   6.057e-5
1.393,   6.192e-5
1.395,   6.395e-5
1.397,   6.619e-5
1.399,   6.849e-5
1.401,   7.108e-5
1.403,   7.399e-5
1.405,   7.770e-5
1.407,   8.152e-5
1.409,   8.578e-5
1.411,   9.067e-5
1.413,   9.652e-5
1.415,   1.027e-4
1.417,   1.095e-4
1.419,   1.175e-4
1.421,   1.267e-4
1.423,   1.367e-4
1.425,   1.478e-4
1.427,   1.608e-4
1.429,   1.755e-4
1.431,   1.917e-4
1.433,   2.097e-4
1.435,   2.304e-4
1.437,   2.541e-4
1.439,   2.807e-4
1.441,   3.104e-4
1.443,   3.444e-4
1.445,   3.828e-4
1.447,   4.260e-4
1.449,   4.746e-4
1.451,   5.293e-4
1.453,   5.920e-4
1.455,   6.610e-4
1.457,   7.386e-4
1.459,   8.255e-4
1.461,   9.225e-4
1.463,   1.029e-3
1.465,   1.148e-3
1.467,   1.279e-3
1.469,   1.421e-3
1.471,   1.582e-3
1.473,   1.752e-3
1.475,   1.937e-3
1.477,   2.133e-3
1.479,   2.354e-3
1.481,   2.585e-3
1.483,   2.819e-3
1.485,   3.072e-3
1.487,   3.331e-3
1.489,   3.603e-3
1.491,   3.903e-3
1.493,   4.184e-3
1.495,   4.497e-3
1.497,   5.201e-3
1.499,   5.511e-3
1.501,   5.809e-3
1.503,   6.082e-3
1.505,   6.487e-3
1.507,   6.834e-3
1.509,   7.494e-3
1.511,   7.758e-3
1.513,   7.995e-3
1.515,   8.801e-3
1.517,   9.029e-3
1.519,   9.833e-3
1.521,   1.006e-2
1.523,   1.006e-2
1.525,   1.006e-2