File: Experimental Records, Raw Data, and Supplementary Notes and Figures/batch3/final500/B3_VARIANCE_500_#4_Full(#12)-236mV.txt
Feb. 24, 2023   15:25:43
Linear Sweep Voltammetry
File: d:\current work\al_oer\electrochemical test data\batch 3\500\B3_VARIANCE_500_#4_Full(#12)-236mV.txt
Data Source:  Experiment
Instrument Model:  CHI660E
Header:
Note:

Init E (V) = 1.099

Final E (V) = 1.520

Scan Rate (V/s) = 0.010
Sample Interval (V) = 0.001
Quiet Time (sec) = 2
Sensitivity (A/V) = 0.001
Comp R (ohm) = 4.6

Results:

Channel 1:

Potential/V, Current/A
1.099,   1.076e-4
1.101,   1.143e-4
1.103,   1.055e-4
1.105,   9.834e-5
1.107,   9.387e-5
1.109,   8.908e-5
1.111,   8.538e-5
1.113,   8.226e-5
1.115,   8.006e-5
1.117,   7.775e-5
1.119,   7.577e-5
1.121,   7.435e-5
1.123,   7.285e-5
1.125,   7.169e-5
1.127,   7.052e-5
1.129,   6.922e-5
1.131,   6.863e-5
1.133,   6.834e-5
1.135,   6.794e-5
1.137,   6.739e-5
1.139,   6.669e-5
1.141,   6.663e-5
1.143,   6.646e-5
1.145,   6.605e-5
1.147,   6.598e-5
1.149,   6.635e-5
1.151,   6.617e-5
1.153,   6.601e-5
1.155,   6.607e-5
1.157,   6.648e-5
1.159,   6.648e-5
1.161,   6.653e-5
1.163,   6.682e-5
1.165,   6.696e-5
1.167,   6.689e-5
1.169,   6.716e-5
1.171,   6.778e-5
1.173,   6.825e-5
1.175,   6.862e-5
1.177,   6.866e-5
1.179,   6.902e-5
1.181,   6.975e-5
1.183,   7.015e-5
1.185,   7.029e-5
1.187,   7.055e-5
1.189,   7.141e-5
1.191,   7.176e-5
1.193,   7.191e-5
1.195,   7.246e-5
1.197,   7.338e-5
1.199,   7.348e-5
1.201,   7.369e-5
1.203,   7.404e-5
1.205,   7.477e-5
1.207,   7.495e-5
1.209,   7.532e-5
1.211,   7.555e-5
1.213,   7.614e-5
1.215,   7.624e-5
1.217,   7.618e-5
1.219,   7.659e-5
1.221,   7.679e-5
1.223,   7.678e-5
1.225,   7.642e-5
1.227,   7.649e-5
1.229,   7.664e-5
1.231,   7.660e-5
1.233,   7.630e-5
1.235,   7.628e-5
1.237,   7.636e-5
1.239,   7.615e-5
1.241,   7.580e-5
1.243,   7.563e-5
1.245,   7.569e-5
1.247,   7.552e-5
1.249,   7.506e-5
1.251,   7.479e-5
1.253,   7.497e-5
1.255,   7.463e-5
1.257,   7.416e-5
1.259,   7.405e-5
1.261,   7.412e-5
1.263,   7.384e-5
1.265,   7.356e-5
1.267,   7.338e-5
1.269,   7.349e-5
1.271,   7.303e-5
1.273,   7.292e-5
1.275,   7.265e-5
1.277,   7.276e-5
1.279,   7.253e-5
1.281,   7.230e-5
1.283,   7.210e-5
1.285,   7.226e-5
1.287,   7.209e-5
1.289,   7.175e-5
1.291,   7.173e-5
1.293,   7.201e-5
1.295,   7.174e-5
1.297,   7.156e-5
1.299,   7.176e-5
1.301,   7.184e-5
1.303,   7.190e-5
1.305,   7.163e-5
1.307,   7.168e-5
1.309,   7.197e-5
1.311,   7.205e-5
1.313,   7.177e-5
1.315,   7.187e-5
1.317,   7.236e-5
1.319,   7.246e-5
1.321,   7.226e-5
1.323,   7.238e-5
1.325,   7.308e-5
1.327,   7.299e-5
1.329,   7.306e-5
1.331,   7.327e-5
1.333,   7.358e-5
1.335,   7.384e-5
1.337,   7.397e-5
1.339,   7.398e-5
1.341,   7.464e-5
1.343,   7.487e-5
1.345,   7.498e-5
1.347,   7.549e-5
1.349,   7.623e-5
1.351,   7.639e-5
1.353,   7.668e-5
1.355,   7.712e-5
1.357,   7.802e-5
1.359,   7.838e-5
1.361,   7.884e-5
1.363,   7.961e-5
1.365,   8.042e-5
1.367,   8.109e-5
1.369,   8.188e-5
1.371,   8.268e-5
1.373,   8.410e-5
1.375,   8.518e-5
1.377,   8.606e-5
1.379,   8.740e-5
1.381,   8.937e-5
1.383,   9.084e-5
1.385,   9.280e-5
1.387,   9.472e-5
1.389,   9.779e-5
1.391,   1.003e-4
1.393,   1.031e-4
1.395,   1.067e-4
1.397,   1.108e-4
1.399,   1.153e-4
1.401,   1.202e-4
1.403,   1.257e-4
1.405,   1.323e-4
1.407,   1.395e-4
1.409,   1.473e-4
1.411,   1.565e-4
1.413,   1.673e-4
1.415,   1.789e-4
1.417,   1.918e-4
1.419,   2.068e-4
1.421,   2.237e-4
1.423,   2.425e-4
1.425,   2.636e-4
1.427,   2.881e-4
1.429,   3.146e-4
1.431,   3.444e-4
1.433,   3.777e-4
1.435,   4.147e-4
1.437,   4.567e-4
1.439,   5.030e-4
1.441,   5.542e-4
1.443,   6.110e-4
1.445,   6.755e-4
1.447,   7.456e-4
1.449,   8.223e-4
1.451,   9.073e-4
1.453,   1.002e-3
1.455,   1.105e-3
1.457,   1.218e-3
1.459,   1.341e-3
1.461,   1.477e-3
1.463,   1.622e-3
1.465,   1.786e-3
1.467,   1.956e-3
1.469,   2.138e-3
1.471,   2.339e-3
1.473,   2.554e-3
1.475,   2.780e-3
1.477,   3.028e-3
1.479,   3.301e-3
1.481,   3.567e-3
1.483,   3.868e-3
1.485,   4.166e-3
1.487,   4.523e-3
1.489,   4.845e-3
1.491,   5.232e-3
1.493,   5.578e-3
1.495,   5.996e-3
1.497,   6.412e-3
1.499,   6.807e-3
1.501,   7.252e-3
1.503,   7.794e-3
1.505,   8.186e-3
1.507,   8.659e-3
1.509,   9.226e-3
1.511,   9.647e-3
1.513,   1.007e-2
1.515,   1.007e-2
1.517,   1.007e-2
1.519,   1.007e-2
1.520,   1.007e-2