File: Experimental Records, Raw Data, and Supplementary Notes and Figures/batch3/final500/B3_VARIANCE_500_#3_High_Quality(#24)-299mV.txt
Feb. 24, 2023   14:57:59
Linear Sweep Voltammetry
File: d:\current work\al_oer\electrochemical test data\batch 3\500\B3_VARIANCE_500_#3_High_Quality(#24)-299mV.txt
Data Source:  Experiment
Instrument Model:  CHI660E
Header:
Note:

Init E (V) = 1.099

Final E (V) = 1.632

Scan Rate (V/s) = 0.010
Sample Interval (V) = 0.001
Quiet Time (sec) = 2
Sensitivity (A/V) = 0.001
Comp R (ohm) = 4.6

Results:

Channel 1:

Potential/V, Current/A
1.099,   1.712e-4
1.101,   1.539e-4
1.103,   1.379e-4
1.105,   1.251e-4
1.107,   1.145e-4
1.109,   1.059e-4
1.111,   9.871e-5
1.113,   9.233e-5
1.115,   8.692e-5
1.117,   8.231e-5
1.119,   7.832e-5
1.121,   7.482e-5
1.123,   7.164e-5
1.125,   6.893e-5
1.127,   6.638e-5
1.129,   6.421e-5
1.131,   6.203e-5
1.133,   6.017e-5
1.135,   5.839e-5
1.137,   5.673e-5
1.139,   5.525e-5
1.141,   5.409e-5
1.143,   5.303e-5
1.145,   5.184e-5
1.147,   5.089e-5
1.149,   5.001e-5
1.151,   4.900e-5
1.153,   4.840e-5
1.155,   4.768e-5
1.157,   4.702e-5
1.159,   4.644e-5
1.161,   4.604e-5
1.163,   4.562e-5
1.165,   4.510e-5
1.167,   4.477e-5
1.169,   4.430e-5
1.171,   4.395e-5
1.173,   4.368e-5
1.175,   4.351e-5
1.177,   4.318e-5
1.179,   4.301e-5
1.181,   4.281e-5
1.183,   4.272e-5
1.185,   4.243e-5
1.187,   4.218e-5
1.189,   4.208e-5
1.191,   4.213e-5
1.193,   4.202e-5
1.195,   4.183e-5
1.197,   4.192e-5
1.199,   4.185e-5
1.201,   4.181e-5
1.203,   4.188e-5
1.205,   4.178e-5
1.207,   4.173e-5
1.209,   4.179e-5
1.211,   4.180e-5
1.213,   4.178e-5
1.215,   4.177e-5
1.217,   4.181e-5
1.219,   4.186e-5
1.221,   4.199e-5
1.223,   4.201e-5
1.225,   4.209e-5
1.227,   4.221e-5
1.229,   4.228e-5
1.231,   4.241e-5
1.233,   4.244e-5
1.235,   4.254e-5
1.237,   4.277e-5
1.239,   4.282e-5
1.241,   4.292e-5
1.243,   4.297e-5
1.245,   4.315e-5
1.247,   4.327e-5
1.249,   4.326e-5
1.251,   4.338e-5
1.253,   4.365e-5
1.255,   4.386e-5
1.257,   4.397e-5
1.259,   4.406e-5
1.261,   4.426e-5
1.263,   4.441e-5
1.265,   4.452e-5
1.267,   4.466e-5
1.269,   4.488e-5
1.271,   4.501e-5
1.273,   4.512e-5
1.275,   4.531e-5
1.277,   4.545e-5
1.279,   4.563e-5
1.281,   4.571e-5
1.283,   4.593e-5
1.285,   4.616e-5
1.287,   4.639e-5
1.289,   4.646e-5
1.291,   4.656e-5
1.293,   4.677e-5
1.295,   4.692e-5
1.297,   4.713e-5
1.299,   4.732e-5
1.301,   4.763e-5
1.303,   4.786e-5
1.305,   4.795e-5
1.307,   4.810e-5
1.309,   4.826e-5
1.311,   4.853e-5
1.313,   4.878e-5
1.315,   4.888e-5
1.317,   4.915e-5
1.319,   4.935e-5
1.321,   4.954e-5
1.323,   4.966e-5
1.325,   4.997e-5
1.327,   5.015e-5
1.329,   5.023e-5
1.331,   5.052e-5
1.333,   5.079e-5
1.335,   5.102e-5
1.337,   5.118e-5
1.339,   5.135e-5
1.341,   5.170e-5
1.343,   5.196e-5
1.345,   5.220e-5
1.347,   5.234e-5
1.349,   5.265e-5
1.351,   5.290e-5
1.353,   5.306e-5
1.355,   5.341e-5
1.357,   5.366e-5
1.359,   5.387e-5
1.361,   5.424e-5
1.363,   5.461e-5
1.365,   5.493e-5
1.367,   5.528e-5
1.369,   5.568e-5
1.371,   5.606e-5
1.373,   5.660e-5
1.375,   5.699e-5
1.377,   5.734e-5
1.379,   5.771e-5
1.381,   5.824e-5
1.383,   5.871e-5
1.385,   5.918e-5
1.387,   5.983e-5
1.389,   6.058e-5
1.391,   6.128e-5
1.393,   6.192e-5
1.395,   6.267e-5
1.397,   6.364e-5
1.399,   6.450e-5
1.401,   6.559e-5
1.403,   6.671e-5
1.405,   6.796e-5
1.407,   6.948e-5
1.409,   7.100e-5
1.411,   7.274e-5
1.413,   7.480e-5
1.415,   7.702e-5
1.417,   7.940e-5
1.419,   8.216e-5
1.421,   8.517e-5
1.423,   8.854e-5
1.425,   9.228e-5
1.427,   9.664e-5
1.429,   1.014e-4
1.431,   1.065e-4
1.433,   1.122e-4
1.435,   1.187e-4
1.437,   1.257e-4
1.439,   1.335e-4
1.441,   1.420e-4
1.443,   1.512e-4
1.445,   1.616e-4
1.447,   1.725e-4
1.449,   1.844e-4
1.451,   1.975e-4
1.453,   2.117e-4
1.455,   2.271e-4
1.457,   2.436e-4
1.459,   2.612e-4
1.461,   2.802e-4
1.463,   3.004e-4
1.465,   3.222e-4
1.467,   3.454e-4
1.469,   3.701e-4
1.471,   3.962e-4
1.473,   4.239e-4
1.475,   4.535e-4
1.477,   4.843e-4
1.479,   5.167e-4
1.481,   5.511e-4
1.483,   5.871e-4
1.485,   6.249e-4
1.487,   6.647e-4
1.489,   7.059e-4
1.491,   7.492e-4
1.493,   7.939e-4
1.495,   8.406e-4
1.497,   8.896e-4
1.499,   9.398e-4
1.501,   9.925e-4
1.503,   1.046e-3
1.505,   1.102e-3
1.507,   1.161e-3
1.509,   1.220e-3
1.511,   1.282e-3
1.513,   1.345e-3
1.515,   1.410e-3
1.517,   1.479e-3
1.519,   1.550e-3
1.521,   1.621e-3
1.523,   1.694e-3
1.525,   1.769e-3
1.527,   1.848e-3
1.529,   1.928e-3
1.531,   2.010e-3
1.533,   2.093e-3
1.535,   2.179e-3
1.537,   2.269e-3
1.539,   2.358e-3
1.541,   2.462e-3
1.543,   2.555e-3
1.545,   2.655e-3
1.547,   2.754e-3
1.549,   2.863e-3
1.551,   2.970e-3
1.553,   3.079e-3
1.555,   3.190e-3
1.557,   3.306e-3
1.559,   3.424e-3
1.561,   3.563e-3
1.563,   3.719e-3
1.565,   3.842e-3
1.567,   3.987e-3
1.569,   4.112e-3
1.571,   4.246e-3
1.573,   4.396e-3
1.575,   4.541e-3
1.577,   4.696e-3
1.579,   4.845e-3
1.581,   5.014e-3
1.583,   5.247e-3
1.585,   5.403e-3
1.587,   5.575e-3
1.589,   5.755e-3
1.591,   5.917e-3
1.593,   6.119e-3
1.595,   6.346e-3
1.597,   6.516e-3
1.599,   6.691e-3
1.601,   6.890e-3
1.603,   7.140e-3
1.605,   7.334e-3
1.607,   7.491e-3
1.609,   7.691e-3
1.611,   7.883e-3
1.613,   8.074e-3
1.615,   8.393e-3
1.617,   8.600e-3
1.619,   8.825e-3
1.621,   9.030e-3
1.623,   9.373e-3
1.625,   9.560e-3
1.627,   9.904e-3
1.629,   1.007e-2
1.631,   1.007e-2
1.632,   1.007e-2