File: Experimental Records, Raw Data, and Supplementary Notes and Figures/batch3/final500/B3_VARIANCE_500_#3_Full(#11)-273mV.txt
Feb. 22, 2023   14:36:14
Linear Sweep Voltammetry
File: d:\current work\al_oer\electrochemical test data\batch 3\500\B3_VARIANCE_500_#3_Full(#11)-273mV.txt
Data Source:  Experiment
Instrument Model:  CHI660E
Header:
Note:

Init E (V) = 1.100

Final E (V) = 1.565

Scan Rate (V/s) = 0.010
Sample Interval (V) = 0.001
Quiet Time (sec) = 2
Sensitivity (A/V) = 0.001
Comp R (ohm) = 4.8

Results:

Channel 1:

Potential/V, Current/A
1.100,   4.647e-5
1.102,   5.971e-5
1.104,   5.655e-5
1.106,   5.405e-5
1.108,   5.235e-5
1.110,   5.089e-5
1.112,   4.954e-5
1.114,   4.849e-5
1.116,   4.750e-5
1.118,   4.703e-5
1.120,   4.643e-5
1.122,   4.569e-5
1.124,   4.522e-5
1.126,   4.498e-5
1.128,   4.449e-5
1.130,   4.409e-5
1.132,   4.386e-5
1.134,   4.387e-5
1.136,   4.358e-5
1.138,   4.326e-5
1.140,   4.320e-5
1.142,   4.312e-5
1.144,   4.298e-5
1.146,   4.284e-5
1.148,   4.269e-5
1.150,   4.282e-5
1.152,   4.273e-5
1.154,   4.242e-5
1.156,   4.246e-5
1.158,   4.267e-5
1.160,   4.255e-5
1.162,   4.239e-5
1.164,   4.237e-5
1.166,   4.251e-5
1.168,   4.251e-5
1.170,   4.236e-5
1.172,   4.255e-5
1.174,   4.256e-5
1.176,   4.250e-5
1.178,   4.248e-5
1.180,   4.243e-5
1.182,   4.267e-5
1.184,   4.276e-5
1.186,   4.254e-5
1.188,   4.260e-5
1.190,   4.282e-5
1.192,   4.280e-5
1.194,   4.274e-5
1.196,   4.279e-5
1.198,   4.332e-5
1.200,   4.304e-5
1.202,   4.274e-5
1.204,   4.293e-5
1.206,   4.324e-5
1.208,   4.315e-5
1.210,   4.333e-5
1.212,   4.319e-5
1.214,   4.348e-5
1.216,   4.390e-5
1.218,   4.301e-5
1.220,   4.340e-5
1.222,   4.369e-5
1.224,   4.375e-5
1.226,   4.368e-5
1.228,   4.382e-5
1.230,   4.406e-5
1.232,   4.404e-5
1.234,   4.390e-5
1.236,   4.416e-5
1.238,   4.437e-5
1.240,   4.444e-5
1.242,   4.438e-5
1.244,   4.441e-5
1.246,   4.468e-5
1.248,   4.475e-5
1.250,   4.463e-5
1.252,   4.476e-5
1.254,   4.504e-5
1.256,   4.509e-5
1.258,   4.508e-5
1.260,   4.512e-5
1.262,   4.549e-5
1.264,   4.547e-5
1.266,   4.539e-5
1.268,   4.568e-5
1.270,   4.584e-5
1.272,   4.587e-5
1.274,   4.609e-5
1.276,   4.603e-5
1.278,   4.640e-5
1.280,   4.649e-5
1.282,   4.642e-5
1.284,   4.656e-5
1.286,   4.695e-5
1.288,   4.703e-5
1.290,   4.706e-5
1.292,   4.712e-5
1.294,   4.757e-5
1.296,   4.759e-5
1.298,   4.761e-5
1.300,   4.791e-5
1.302,   4.817e-5
1.304,   4.834e-5
1.306,   4.843e-5
1.308,   4.841e-5
1.310,   4.896e-5
1.312,   4.908e-5
1.314,   4.911e-5
1.316,   4.936e-5
1.318,   4.975e-5
1.320,   4.990e-5
1.322,   4.996e-5
1.324,   5.018e-5
1.326,   5.086e-5
1.328,   5.082e-5
1.330,   5.087e-5
1.332,   5.126e-5
1.334,   5.164e-5
1.336,   5.178e-5
1.338,   5.217e-5
1.340,   5.224e-5
1.342,   5.290e-5
1.344,   5.297e-5
1.346,   5.328e-5
1.348,   5.358e-5
1.350,   5.411e-5
1.352,   5.440e-5
1.354,   5.469e-5
1.356,   5.506e-5
1.358,   5.569e-5
1.360,   5.582e-5
1.362,   5.621e-5
1.364,   5.688e-5
1.366,   5.727e-5
1.368,   5.764e-5
1.370,   5.823e-5
1.372,   5.864e-5
1.374,   5.932e-5
1.376,   5.999e-5
1.378,   6.038e-5
1.380,   6.124e-5
1.382,   6.195e-5
1.384,   6.259e-5
1.386,   6.333e-5
1.388,   6.415e-5
1.390,   6.544e-5
1.392,   6.632e-5
1.394,   6.726e-5
1.396,   6.851e-5
1.398,   7.004e-5
1.400,   7.137e-5
1.402,   7.288e-5
1.404,   7.444e-5
1.406,   7.665e-5
1.408,   7.923e-5
1.410,   8.077e-5
1.412,   8.335e-5
1.414,   8.636e-5
1.416,   8.945e-5
1.418,   9.269e-5
1.420,   9.653e-5
1.422,   1.009e-4
1.424,   1.056e-4
1.426,   1.106e-4
1.428,   1.165e-4
1.430,   1.235e-4
1.432,   1.299e-4
1.434,   1.375e-4
1.436,   1.462e-4
1.438,   1.561e-4
1.440,   1.667e-4
1.442,   1.781e-4
1.444,   1.910e-4
1.446,   2.051e-4
1.448,   2.208e-4
1.450,   2.372e-4
1.452,   2.557e-4
1.454,   2.761e-4
1.456,   2.978e-4
1.458,   3.217e-4
1.460,   3.479e-4
1.462,   3.762e-4
1.464,   4.074e-4
1.466,   4.413e-4
1.468,   4.780e-4
1.470,   5.179e-4
1.472,   5.609e-4
1.474,   6.071e-4
1.476,   6.568e-4
1.478,   7.108e-4
1.480,   7.688e-4
1.482,   8.308e-4
1.484,   8.986e-4
1.486,   9.723e-4
1.488,   1.052e-3
1.490,   1.137e-3
1.492,   1.229e-3
1.494,   1.327e-3
1.496,   1.434e-3
1.498,   1.546e-3
1.500,   1.668e-3
1.502,   1.798e-3
1.504,   1.937e-3
1.506,   2.084e-3
1.508,   2.242e-3
1.510,   2.411e-3
1.512,   2.587e-3
1.514,   2.778e-3
1.516,   2.976e-3
1.518,   3.193e-3
1.520,   3.433e-3
1.522,   3.675e-3
1.524,   3.928e-3
1.526,   4.195e-3
1.528,   4.471e-3
1.530,   4.780e-3
1.532,   5.109e-3
1.534,   5.430e-3
1.536,   5.754e-3
1.538,   6.161e-3
1.540,   6.532e-3
1.542,   6.897e-3
1.544,   7.310e-3
1.546,   7.672e-3
1.548,   8.193e-3
1.550,   8.812e-3
1.552,   9.302e-3
1.554,   9.712e-3
1.556,   1.006e-2
1.558,   1.006e-2
1.560,   1.006e-2
1.562,   1.006e-2
1.564,   1.006e-2
1.565,   1.006e-2