File: Experimental Records, Raw Data, and Supplementary Notes and Figures/batch3/final500/B3_VARIANCE_500_#2_Full(#10)-349mV.txt
Feb. 22, 2023   14:21:41
Linear Sweep Voltammetry
File: d:\current work\al_oer\electrochemical test data\batch 3\500\B3_VARIANCE_500_#2_Full(#10)-349mV.txt
Data Source:  Experiment
Instrument Model:  CHI660E
Header:
Note:

Init E (V) = 1.100

Final E (V) = 1.799

Scan Rate (V/s) = 0.010
Sample Interval (V) = 0.001
Quiet Time (sec) = 2
Sensitivity (A/V) = 0.001
Comp R (ohm) = 5.6

Results:

Channel 1:
Ep = 1.487V
ip = 7.388e-3A
Ah = 1.160e-1C

Potential/V, Current/A
1.100,   3.513e-5
1.103,   3.034e-5
1.106,   2.644e-5
1.109,   2.360e-5
1.112,   2.137e-5
1.115,   1.965e-5
1.118,   1.823e-5
1.121,   1.713e-5
1.124,   1.623e-5
1.127,   1.543e-5
1.130,   1.481e-5
1.133,   1.425e-5
1.136,   1.379e-5
1.139,   1.341e-5
1.142,   1.301e-5
1.145,   1.276e-5
1.148,   1.251e-5
1.151,   1.228e-5
1.154,   1.212e-5
1.157,   1.196e-5
1.160,   1.184e-5
1.163,   1.172e-5
1.166,   1.165e-5
1.169,   1.158e-5
1.172,   1.152e-5
1.175,   1.149e-5
1.178,   1.148e-5
1.181,   1.144e-5
1.184,   1.145e-5
1.187,   1.145e-5
1.190,   1.145e-5
1.193,   1.149e-5
1.196,   1.152e-5
1.199,   1.154e-5
1.202,   1.158e-5
1.205,   1.163e-5
1.208,   1.169e-5
1.211,   1.177e-5
1.214,   1.183e-5
1.217,   1.188e-5
1.220,   1.193e-5
1.223,   1.202e-5
1.226,   1.211e-5
1.229,   1.216e-5
1.232,   1.226e-5
1.235,   1.231e-5
1.238,   1.235e-5
1.241,   1.242e-5
1.244,   1.250e-5
1.247,   1.260e-5
1.250,   1.266e-5
1.253,   1.273e-5
1.256,   1.283e-5
1.259,   1.290e-5
1.262,   1.299e-5
1.265,   1.306e-5
1.268,   1.313e-5
1.271,   1.324e-5
1.274,   1.333e-5
1.277,   1.342e-5
1.280,   1.351e-5
1.283,   1.360e-5
1.286,   1.370e-5
1.289,   1.379e-5
1.292,   1.386e-5
1.295,   1.398e-5
1.298,   1.410e-5
1.301,   1.422e-5
1.304,   1.433e-5
1.307,   1.446e-5
1.310,   1.458e-5
1.313,   1.472e-5
1.316,   1.487e-5
1.319,   1.497e-5
1.322,   1.512e-5
1.325,   1.530e-5
1.328,   1.544e-5
1.331,   1.559e-5
1.334,   1.574e-5
1.337,   1.589e-5
1.340,   1.608e-5
1.343,   1.624e-5
1.346,   1.645e-5
1.349,   1.667e-5
1.352,   1.682e-5
1.355,   1.701e-5
1.358,   1.719e-5
1.361,   1.738e-5
1.364,   1.761e-5
1.367,   1.783e-5
1.370,   1.803e-5
1.373,   1.830e-5
1.376,   1.857e-5
1.379,   1.886e-5
1.382,   1.912e-5
1.385,   1.941e-5
1.388,   1.983e-5
1.391,   2.027e-5
1.394,   2.082e-5
1.397,   2.114e-5
1.400,   2.163e-5
1.403,   2.209e-5
1.406,   2.270e-5
1.409,   2.338e-5
1.412,   2.421e-5
1.415,   2.514e-5
1.418,   2.622e-5
1.421,   2.741e-5
1.424,   2.880e-5
1.427,   3.036e-5
1.430,   3.218e-5
1.433,   3.421e-5
1.436,   3.652e-5
1.439,   3.904e-5
1.442,   4.207e-5
1.445,   4.549e-5
1.448,   4.940e-5
1.451,   5.387e-5
1.454,   5.901e-5
1.457,   6.486e-5
1.460,   7.148e-5
1.463,   7.917e-5
1.466,   8.765e-5
1.469,   9.716e-5
1.472,   1.080e-4
1.475,   1.203e-4
1.478,   1.339e-4
1.481,   1.492e-4
1.484,   1.660e-4
1.487,   1.859e-4
1.490,   2.054e-4
1.493,   2.279e-4
1.496,   2.526e-4
1.499,   2.792e-4
1.502,   3.079e-4
1.505,   3.390e-4
1.508,   3.720e-4
1.511,   4.072e-4
1.514,   4.451e-4
1.517,   4.849e-4
1.520,   5.269e-4
1.523,   5.717e-4
1.526,   6.179e-4
1.529,   6.667e-4
1.532,   7.182e-4
1.535,   7.714e-4
1.538,   8.278e-4
1.541,   8.860e-4
1.544,   9.467e-4
1.547,   1.011e-3
1.550,   1.080e-3
1.553,   1.150e-3
1.556,   1.226e-3
1.559,   1.300e-3
1.562,   1.376e-3
1.565,   1.461e-3
1.568,   1.547e-3
1.571,   1.636e-3
1.574,   1.735e-3
1.577,   1.836e-3
1.580,   1.950e-3
1.583,   2.067e-3
1.586,   2.174e-3
1.589,   2.289e-3
1.592,   2.417e-3
1.595,   2.549e-3
1.598,   2.695e-3
1.601,   2.869e-3
1.604,   3.016e-3
1.607,   3.167e-3
1.610,   3.353e-3
1.613,   3.527e-3
1.616,   3.732e-3
1.619,   3.905e-3
1.622,   4.089e-3
1.625,   4.343e-3
1.628,   4.575e-3
1.631,   4.846e-3
1.634,   5.042e-3
1.637,   5.229e-3
1.640,   5.576e-3
1.643,   5.747e-3
1.646,   5.962e-3
1.649,   6.341e-3
1.652,   6.556e-3
1.655,   6.656e-3
1.658,   6.900e-3
1.661,   7.143e-3
1.664,   7.278e-3
1.667,   7.271e-3
1.670,   7.433e-3
1.673,   7.382e-3
1.676,   7.507e-3
1.679,   7.566e-3
1.682,   7.551e-3
1.685,   7.408e-3
1.688,   7.489e-3
1.691,   7.553e-3
1.694,   7.453e-3
1.697,   7.481e-3
1.700,   7.386e-3
1.703,   7.278e-3
1.706,   7.227e-3
1.709,   7.119e-3
1.712,   6.991e-3
1.715,   7.028e-3
1.718,   6.893e-3
1.721,   6.776e-3
1.724,   6.623e-3
1.727,   6.546e-3
1.730,   6.428e-3
1.733,   6.180e-3
1.736,   6.072e-3
1.739,   6.017e-3
1.742,   5.874e-3
1.745,   5.706e-3
1.748,   5.556e-3
1.751,   5.405e-3
1.754,   5.271e-3
1.757,   5.131e-3
1.760,   5.143e-3
1.763,   4.953e-3
1.766,   4.781e-3
1.769,   4.726e-3
1.772,   4.525e-3
1.775,   4.377e-3
1.778,   4.277e-3
1.781,   4.137e-3
1.784,   4.000e-3
1.787,   3.914e-3
1.790,   3.783e-3
1.793,   3.661e-3
1.796,   3.545e-3
1.799,   3.475e-3