File: Experimental Records, Raw Data, and Supplementary Notes and Figures/batch3/final500/B3_VARIANCE_500_#1_High_Quality(#22)-174mV.txt
Feb. 24, 2023   14:22:45
Linear Sweep Voltammetry
File: d:\current work\al_oer\electrochemical test data\batch 3\500\B3_VARIANCE_500_#1_High_Quality(#22)-174mV.txt
Data Source:  Experiment
Instrument Model:  CHI660E
Header:
Note:

Init E (V) = 1.100

Final E (V) = 1.466

Scan Rate (V/s) = 0.010
Sample Interval (V) = 0.001
Quiet Time (sec) = 2
Sensitivity (A/V) = 0.001
Comp R (ohm) = 4.8

Results:

Channel 1:

Potential/V, Current/A
1.100,   1.007e-2
1.102,   1.007e-2
1.104,   6.655e-3
1.106,   2.430e-3
1.108,   1.470e-3
1.110,   1.055e-3
1.112,   8.349e-4
1.114,   7.052e-4
1.116,   6.227e-4
1.118,   5.692e-4
1.120,   5.292e-4
1.122,   5.006e-4
1.124,   4.781e-4
1.126,   4.616e-4
1.128,   4.492e-4
1.130,   4.373e-4
1.132,   4.275e-4
1.134,   4.210e-4
1.136,   4.147e-4
1.138,   4.092e-4
1.140,   4.048e-4
1.142,   4.014e-4
1.144,   3.979e-4
1.146,   3.955e-4
1.148,   3.921e-4
1.150,   3.906e-4
1.152,   3.892e-4
1.154,   3.874e-4
1.156,   3.856e-4
1.158,   3.853e-4
1.160,   3.850e-4
1.162,   3.833e-4
1.164,   3.828e-4
1.166,   3.835e-4
1.168,   3.833e-4
1.170,   3.821e-4
1.172,   3.828e-4
1.174,   3.828e-4
1.176,   3.828e-4
1.178,   3.829e-4
1.180,   3.819e-4
1.182,   3.835e-4
1.184,   3.841e-4
1.186,   3.839e-4
1.188,   3.839e-4
1.190,   3.852e-4
1.192,   3.858e-4
1.194,   3.857e-4
1.196,   3.859e-4
1.198,   3.877e-4
1.200,   3.879e-4
1.202,   3.876e-4
1.204,   3.882e-4
1.206,   3.895e-4
1.208,   3.903e-4
1.210,   3.908e-4
1.212,   3.912e-4
1.214,   3.922e-4
1.216,   3.936e-4
1.218,   3.935e-4
1.220,   3.937e-4
1.222,   3.960e-4
1.224,   3.969e-4
1.226,   3.973e-4
1.228,   3.972e-4
1.230,   3.990e-4
1.232,   3.998e-4
1.234,   3.999e-4
1.236,   4.012e-4
1.238,   4.027e-4
1.240,   4.033e-4
1.242,   4.038e-4
1.244,   4.038e-4
1.246,   4.062e-4
1.248,   4.071e-4
1.250,   4.073e-4
1.252,   4.077e-4
1.254,   4.099e-4
1.256,   4.109e-4
1.258,   4.111e-4
1.260,   4.114e-4
1.262,   4.137e-4
1.264,   4.148e-4
1.266,   4.149e-4
1.268,   4.154e-4
1.270,   4.177e-4
1.272,   4.188e-4
1.274,   4.196e-4
1.276,   4.201e-4
1.278,   4.216e-4
1.280,   4.236e-4
1.282,   4.237e-4
1.284,   4.242e-4
1.286,   4.259e-4
1.288,   4.276e-4
1.290,   4.281e-4
1.292,   4.288e-4
1.294,   4.315e-4
1.296,   4.321e-4
1.298,   4.330e-4
1.300,   4.345e-4
1.302,   4.360e-4
1.304,   4.379e-4
1.306,   4.385e-4
1.308,   4.394e-4
1.310,   4.417e-4
1.312,   4.437e-4
1.314,   4.449e-4
1.316,   4.459e-4
1.318,   4.482e-4
1.320,   4.505e-4
1.322,   4.519e-4
1.324,   4.538e-4
1.326,   4.583e-4
1.328,   4.603e-4
1.330,   4.622e-4
1.332,   4.642e-4
1.334,   4.689e-4
1.336,   4.730e-4
1.338,   4.774e-4
1.340,   4.806e-4
1.342,   4.863e-4
1.344,   4.917e-4
1.346,   4.976e-4
1.348,   5.043e-4
1.350,   5.128e-4
1.352,   5.223e-4
1.354,   5.312e-4
1.356,   5.414e-4
1.358,   5.547e-4
1.360,   5.683e-4
1.362,   5.831e-4
1.364,   6.011e-4
1.366,   6.203e-4
1.368,   6.427e-4
1.370,   6.665e-4
1.372,   6.936e-4
1.374,   7.251e-4
1.376,   7.595e-4
1.378,   7.970e-4
1.380,   8.387e-4
1.382,   8.866e-4
1.384,   9.396e-4
1.386,   9.972e-4
1.388,   1.060e-3
1.390,   1.134e-3
1.392,   1.211e-3
1.394,   1.297e-3
1.396,   1.390e-3
1.398,   1.494e-3
1.400,   1.607e-3
1.402,   1.729e-3
1.404,   1.865e-3
1.406,   2.015e-3
1.408,   2.181e-3
1.410,   2.357e-3
1.412,   2.550e-3
1.414,   2.766e-3
1.416,   2.994e-3
1.418,   3.245e-3
1.420,   3.521e-3
1.422,   3.822e-3
1.424,   4.135e-3
1.426,   4.501e-3
1.428,   4.879e-3
1.430,   5.290e-3
1.432,   5.722e-3
1.434,   6.200e-3
1.436,   6.650e-3
1.438,   7.150e-3
1.440,   7.747e-3
1.442,   8.293e-3
1.444,   9.013e-3
1.446,   9.627e-3
1.448,   1.007e-2
1.450,   1.007e-2
1.452,   1.007e-2
1.454,   1.007e-2
1.456,   1.007e-2
1.458,   1.007e-2
1.460,   1.007e-2
1.462,   1.007e-2
1.464,   1.007e-2
1.466,   1.007e-2