File: Experimental Records and Raw Data/batch3/final500/B3_BEST_500_#7_Full-266mV.txt
Feb. 24, 2023   14:14:53
Linear Sweep Voltammetry
File: d:\current work\al_oer\electrochemical test data\batch 3\500\B3_BEST_500_#7_Full-266mV.txt
Data Source:  Experiment
Instrument Model:  CHI660E
Header:
Note:

Init E (V) = 1.102

Final E (V) = 1.665

Scan Rate (V/s) = 0.010
Sample Interval (V) = 0.001
Quiet Time (sec) = 2
Sensitivity (A/V) = 0.001
Comp R (ohm) = 4.6

Results:

Channel 1:

Potential/V, Current/A
1.102,   3.913e-4
1.104,   3.247e-4
1.106,   2.723e-4
1.108,   2.328e-4
1.110,   2.025e-4
1.112,   1.791e-4
1.114,   1.605e-4
1.116,   1.454e-4
1.118,   1.330e-4
1.120,   1.230e-4
1.122,   1.146e-4
1.124,   1.075e-4
1.126,   1.014e-4
1.128,   9.629e-5
1.130,   9.201e-5
1.132,   8.816e-5
1.134,   8.481e-5
1.136,   8.206e-5
1.138,   7.950e-5
1.140,   7.723e-5
1.142,   7.526e-5
1.144,   7.346e-5
1.146,   7.193e-5
1.148,   7.049e-5
1.150,   6.925e-5
1.152,   6.814e-5
1.154,   6.713e-5
1.156,   6.624e-5
1.158,   6.536e-5
1.160,   6.470e-5
1.162,   6.405e-5
1.164,   6.342e-5
1.166,   6.282e-5
1.168,   6.233e-5
1.170,   6.197e-5
1.172,   6.148e-5
1.174,   6.118e-5
1.176,   6.081e-5
1.178,   6.055e-5
1.180,   6.024e-5
1.182,   5.996e-5
1.184,   5.972e-5
1.186,   5.963e-5
1.188,   5.938e-5
1.190,   5.920e-5
1.192,   5.906e-5
1.194,   5.902e-5
1.196,   5.878e-5
1.198,   5.871e-5
1.200,   5.878e-5
1.202,   5.868e-5
1.204,   5.849e-5
1.206,   5.840e-5
1.208,   5.845e-5
1.210,   5.839e-5
1.212,   5.835e-5
1.214,   5.833e-5
1.216,   5.841e-5
1.218,   5.840e-5
1.220,   5.835e-5
1.222,   5.837e-5
1.224,   5.837e-5
1.226,   5.849e-5
1.228,   5.848e-5
1.230,   5.842e-5
1.232,   5.852e-5
1.234,   5.855e-5
1.236,   5.863e-5
1.238,   5.865e-5
1.240,   5.873e-5
1.242,   5.883e-5
1.244,   5.887e-5
1.246,   5.890e-5
1.248,   5.899e-5
1.250,   5.911e-5
1.252,   5.919e-5
1.254,   5.917e-5
1.256,   5.936e-5
1.258,   5.950e-5
1.260,   5.953e-5
1.262,   5.962e-5
1.264,   5.985e-5
1.266,   6.003e-5
1.268,   6.006e-5
1.270,   6.017e-5
1.272,   6.034e-5
1.274,   6.040e-5
1.276,   6.060e-5
1.278,   6.068e-5
1.280,   6.081e-5
1.282,   6.100e-5
1.284,   6.112e-5
1.286,   6.130e-5
1.288,   6.152e-5
1.290,   6.170e-5
1.292,   6.180e-5
1.294,   6.192e-5
1.296,   6.219e-5
1.298,   6.244e-5
1.300,   6.254e-5
1.302,   6.280e-5
1.304,   6.304e-5
1.306,   6.322e-5
1.308,   6.342e-5
1.310,   6.356e-5
1.312,   6.387e-5
1.314,   6.409e-5
1.316,   6.439e-5
1.318,   6.449e-5
1.320,   6.487e-5
1.322,   6.504e-5
1.324,   6.523e-5
1.326,   6.548e-5
1.328,   6.596e-5
1.330,   6.614e-5
1.332,   6.645e-5
1.334,   6.671e-5
1.336,   6.701e-5
1.338,   6.738e-5
1.340,   6.768e-5
1.342,   6.804e-5
1.344,   6.845e-5
1.346,   6.880e-5
1.348,   6.909e-5
1.350,   6.949e-5
1.352,   6.992e-5
1.354,   7.045e-5
1.356,   7.086e-5
1.358,   7.127e-5
1.360,   7.189e-5
1.362,   7.246e-5
1.364,   7.292e-5
1.366,   7.362e-5
1.368,   7.432e-5
1.370,   7.502e-5
1.372,   7.580e-5
1.374,   7.655e-5
1.376,   7.751e-5
1.378,   7.862e-5
1.380,   7.973e-5
1.382,   8.091e-5
1.384,   8.232e-5
1.386,   8.390e-5
1.388,   8.557e-5
1.390,   8.736e-5
1.392,   8.967e-5
1.394,   9.214e-5
1.396,   9.475e-5
1.398,   9.786e-5
1.400,   1.014e-4
1.402,   1.053e-4
1.404,   1.097e-4
1.406,   1.147e-4
1.408,   1.203e-4
1.410,   1.266e-4
1.412,   1.334e-4
1.414,   1.412e-4
1.416,   1.499e-4
1.418,   1.596e-4
1.420,   1.701e-4
1.422,   1.818e-4
1.424,   1.947e-4
1.426,   2.088e-4
1.428,   2.240e-4
1.430,   2.412e-4
1.432,   2.593e-4
1.434,   2.790e-4
1.436,   3.002e-4
1.438,   3.230e-4
1.440,   3.476e-4
1.442,   3.739e-4
1.444,   4.018e-4
1.446,   4.317e-4
1.448,   4.634e-4
1.450,   4.971e-4
1.452,   5.325e-4
1.454,   5.702e-4
1.456,   6.101e-4
1.458,   6.521e-4
1.460,   6.961e-4
1.462,   7.425e-4
1.464,   7.911e-4
1.466,   8.421e-4
1.468,   8.956e-4
1.470,   9.514e-4
1.472,   1.010e-3
1.474,   1.071e-3
1.476,   1.135e-3
1.478,   1.201e-3
1.480,   1.270e-3
1.482,   1.341e-3
1.484,   1.416e-3
1.486,   1.492e-3
1.488,   1.572e-3
1.490,   1.654e-3
1.492,   1.738e-3
1.494,   1.826e-3
1.496,   1.915e-3
1.498,   2.007e-3
1.500,   2.102e-3
1.502,   2.198e-3
1.504,   2.296e-3
1.506,   2.393e-3
1.508,   2.496e-3
1.510,   2.598e-3
1.512,   2.704e-3
1.514,   2.813e-3
1.516,   2.921e-3
1.518,   3.034e-3
1.520,   3.150e-3
1.522,   3.267e-3
1.524,   3.384e-3
1.526,   3.506e-3
1.528,   3.629e-3
1.530,   3.753e-3
1.532,   3.876e-3
1.534,   4.001e-3
1.536,   4.128e-3
1.538,   4.253e-3
1.540,   4.384e-3
1.542,   4.513e-3
1.544,   4.646e-3
1.546,   4.776e-3
1.548,   4.912e-3
1.550,   5.048e-3
1.552,   5.192e-3
1.554,   5.332e-3
1.556,   5.463e-3
1.558,   5.600e-3
1.560,   5.745e-3
1.562,   5.886e-3
1.564,   6.025e-3
1.566,   6.163e-3
1.568,   6.304e-3
1.570,   6.445e-3
1.572,   6.579e-3
1.574,   6.714e-3
1.576,   6.845e-3
1.578,   6.982e-3
1.580,   7.118e-3
1.582,   7.250e-3
1.584,   7.382e-3
1.586,   7.502e-3
1.588,   7.640e-3
1.590,   7.771e-3
1.592,   7.902e-3
1.594,   8.014e-3
1.596,   8.125e-3
1.598,   8.247e-3
1.600,   8.346e-3
1.602,   8.460e-3
1.604,   8.575e-3
1.606,   8.672e-3
1.608,   8.776e-3
1.610,   8.877e-3
1.612,   8.974e-3
1.614,   9.059e-3
1.616,   9.132e-3
1.618,   9.215e-3
1.620,   9.291e-3
1.622,   9.340e-3
1.624,   9.394e-3
1.626,   9.442e-3
1.628,   9.497e-3
1.630,   9.545e-3
1.632,   9.589e-3
1.634,   9.630e-3
1.636,   9.657e-3
1.638,   9.676e-3
1.640,   9.696e-3
1.642,   9.730e-3
1.644,   9.738e-3
1.646,   9.749e-3
1.648,   9.758e-3
1.650,   9.751e-3
1.652,   9.730e-3
1.654,   9.698e-3
1.656,   9.671e-3
1.658,   9.640e-3
1.660,   9.602e-3
1.662,   9.550e-3
1.664,   9.513e-3
1.665,   9.482e-3