File: Experimental Records and Raw Data/batch3/final500/B3_BEST_500_#6_High_Quality(#19)-186mV.txt
Feb. 24, 2023   13:42:29
Linear Sweep Voltammetry
File: d:\current work\al_oer\electrochemical test data\batch 3\500\B3_BEST_500_#6_High_Quality(#19)-186mV.txt
Data Source:  Experiment
Instrument Model:  CHI660E
Header:
Note:

Init E (V) = 1.099

Final E (V) = 1.459

Scan Rate (V/s) = 0.010
Sample Interval (V) = 0.001
Quiet Time (sec) = 2
Sensitivity (A/V) = 0.001
Comp R (ohm) = 4.8

Results:

Channel 1:

Potential/V, Current/A
1.099,   1.034e-4
1.101,   1.229e-4
1.103,   1.140e-4
1.105,   1.073e-4
1.107,   1.022e-4
1.109,   9.861e-5
1.111,   9.557e-5
1.113,   9.307e-5
1.115,   9.102e-5
1.117,   8.981e-5
1.119,   8.862e-5
1.121,   8.732e-5
1.123,   8.633e-5
1.125,   8.593e-5
1.127,   8.540e-5
1.129,   8.463e-5
1.131,   8.423e-5
1.133,   8.425e-5
1.135,   8.384e-5
1.137,   8.343e-5
1.139,   8.327e-5
1.141,   8.344e-5
1.143,   8.341e-5
1.145,   8.317e-5
1.147,   8.296e-5
1.149,   8.325e-5
1.151,   8.341e-5
1.153,   8.310e-5
1.155,   8.299e-5
1.157,   8.339e-5
1.159,   8.339e-5
1.161,   8.321e-5
1.163,   8.327e-5
1.165,   8.383e-5
1.167,   8.377e-5
1.169,   8.367e-5
1.171,   8.386e-5
1.173,   8.413e-5
1.175,   8.416e-5
1.177,   8.402e-5
1.179,   8.414e-5
1.181,   8.440e-5
1.183,   8.466e-5
1.185,   8.442e-5
1.187,   8.434e-5
1.189,   8.476e-5
1.191,   8.493e-5
1.193,   8.485e-5
1.195,   8.481e-5
1.197,   8.527e-5
1.199,   8.534e-5
1.201,   8.508e-5
1.203,   8.525e-5
1.205,   8.551e-5
1.207,   8.564e-5
1.209,   8.558e-5
1.211,   8.554e-5
1.213,   8.582e-5
1.215,   8.605e-5
1.217,   8.568e-5
1.219,   8.587e-5
1.221,   8.621e-5
1.223,   8.633e-5
1.225,   8.607e-5
1.227,   8.610e-5
1.229,   8.659e-5
1.231,   8.654e-5
1.233,   8.648e-5
1.235,   8.657e-5
1.237,   8.675e-5
1.239,   8.685e-5
1.241,   8.683e-5
1.243,   8.666e-5
1.245,   8.711e-5
1.247,   8.730e-5
1.249,   8.707e-5
1.251,   8.715e-5
1.253,   8.760e-5
1.255,   8.763e-5
1.257,   8.752e-5
1.259,   8.756e-5
1.261,   8.809e-5
1.263,   8.830e-5
1.265,   8.821e-5
1.267,   8.842e-5
1.269,   8.867e-5
1.271,   8.898e-5
1.273,   8.907e-5
1.275,   8.897e-5
1.277,   8.942e-5
1.279,   8.970e-5
1.281,   8.982e-5
1.283,   8.983e-5
1.285,   9.052e-5
1.287,   9.086e-5
1.289,   9.076e-5
1.291,   9.096e-5
1.293,   9.181e-5
1.295,   9.201e-5
1.297,   9.224e-5
1.299,   9.271e-5
1.301,   9.334e-5
1.303,   9.381e-5
1.305,   9.404e-5
1.307,   9.427e-5
1.309,   9.538e-5
1.311,   9.590e-5
1.313,   9.624e-5
1.315,   9.671e-5
1.317,   9.786e-5
1.319,   9.853e-5
1.321,   9.927e-5
1.323,   9.997e-5
1.325,   1.014e-4
1.327,   1.024e-4
1.329,   1.031e-4
1.331,   1.044e-4
1.333,   1.061e-4
1.335,   1.074e-4
1.337,   1.089e-4
1.339,   1.105e-4
1.341,   1.126e-4
1.343,   1.146e-4
1.345,   1.165e-4
1.347,   1.190e-4
1.349,   1.220e-4
1.351,   1.249e-4
1.353,   1.279e-4
1.355,   1.315e-4
1.357,   1.358e-4
1.359,   1.401e-4
1.361,   1.446e-4
1.363,   1.502e-4
1.365,   1.568e-4
1.367,   1.637e-4
1.369,   1.714e-4
1.371,   1.802e-4
1.373,   1.908e-4
1.375,   2.024e-4
1.377,   2.157e-4
1.379,   2.311e-4
1.381,   2.495e-4
1.383,   2.702e-4
1.385,   2.940e-4
1.387,   3.218e-4
1.389,   3.545e-4
1.391,   3.920e-4
1.393,   4.348e-4
1.395,   4.851e-4
1.397,   5.432e-4
1.399,   6.103e-4
1.401,   6.875e-4
1.403,   7.764e-4
1.405,   8.789e-4
1.407,   9.960e-4
1.409,   1.130e-3
1.411,   1.290e-3
1.413,   1.467e-3
1.415,   1.671e-3
1.417,   1.902e-3
1.419,   2.166e-3
1.421,   2.467e-3
1.423,   2.814e-3
1.425,   3.184e-3
1.427,   3.586e-3
1.429,   4.009e-3
1.431,   4.474e-3
1.433,   4.925e-3
1.435,   5.377e-3
1.437,   5.836e-3
1.439,   6.309e-3
1.441,   6.753e-3
1.443,   7.176e-3
1.445,   7.638e-3
1.447,   8.037e-3
1.449,   8.422e-3
1.451,   8.794e-3
1.453,   9.218e-3
1.455,   9.568e-3
1.457,   9.906e-3
1.459,   1.007e-2