File: Experimental Records and Raw Data/batch3/final500/B3_BEST_500_#4_High_Quality(#17)-217mV.txt
Feb. 24, 2023   13:51:14
Linear Sweep Voltammetry
File: d:\current work\al_oer\electrochemical test data\batch 3\500\B3_BEST_500_#4_High_Quality(#17)-217mV.txt
Data Source:  Experiment
Instrument Model:  CHI660E
Header:
Note:

Init E (V) = 1.099

Final E (V) = 1.507

Scan Rate (V/s) = 0.010
Sample Interval (V) = 0.001
Quiet Time (sec) = 2
Sensitivity (A/V) = 0.001
Comp R (ohm) = 4.8

Results:

Channel 1:

Potential/V, Current/A
1.099,   8.119e-5
1.101,   9.627e-5
1.103,   8.921e-5
1.105,   8.374e-5
1.107,   7.965e-5
1.109,   7.649e-5
1.111,   7.400e-5
1.113,   7.192e-5
1.115,   6.969e-5
1.117,   6.850e-5
1.119,   6.727e-5
1.121,   6.603e-5
1.123,   6.513e-5
1.125,   6.466e-5
1.127,   6.405e-5
1.129,   6.337e-5
1.131,   6.282e-5
1.133,   6.271e-5
1.135,   6.237e-5
1.137,   6.196e-5
1.139,   6.177e-5
1.141,   6.180e-5
1.143,   6.167e-5
1.145,   6.151e-5
1.147,   6.136e-5
1.149,   6.269e-5
1.151,   6.232e-5
1.153,   6.170e-5
1.155,   6.175e-5
1.157,   6.197e-5
1.159,   6.192e-5
1.161,   6.185e-5
1.163,   6.182e-5
1.165,   6.210e-5
1.167,   6.217e-5
1.169,   6.210e-5
1.171,   6.236e-5
1.173,   6.249e-5
1.175,   6.267e-5
1.177,   6.269e-5
1.179,   6.275e-5
1.181,   6.320e-5
1.183,   6.347e-5
1.185,   6.337e-5
1.187,   6.350e-5
1.189,   6.388e-5
1.191,   6.409e-5
1.193,   6.397e-5
1.195,   6.403e-5
1.197,   6.452e-5
1.199,   6.464e-5
1.201,   6.449e-5
1.203,   6.466e-5
1.205,   6.496e-5
1.207,   6.516e-5
1.209,   6.560e-5
1.211,   6.518e-5
1.213,   6.567e-5
1.215,   6.554e-5
1.217,   6.542e-5
1.219,   6.543e-5
1.221,   6.570e-5
1.223,   6.602e-5
1.225,   6.575e-5
1.227,   6.568e-5
1.229,   6.599e-5
1.231,   6.606e-5
1.233,   6.591e-5
1.235,   6.601e-5
1.237,   6.611e-5
1.239,   6.616e-5
1.241,   6.600e-5
1.243,   6.585e-5
1.245,   6.627e-5
1.247,   6.620e-5
1.249,   6.593e-5
1.251,   6.579e-5
1.253,   6.607e-5
1.255,   6.596e-5
1.257,   6.578e-5
1.259,   6.568e-5
1.261,   6.598e-5
1.263,   6.585e-5
1.265,   6.570e-5
1.267,   6.563e-5
1.269,   6.579e-5
1.271,   6.583e-5
1.273,   6.571e-5
1.275,   6.552e-5
1.277,   6.579e-5
1.279,   6.565e-5
1.281,   6.544e-5
1.283,   6.530e-5
1.285,   6.555e-5
1.287,   6.579e-5
1.289,   6.542e-5
1.291,   6.532e-5
1.293,   6.566e-5
1.295,   6.564e-5
1.297,   6.548e-5
1.299,   6.551e-5
1.301,   6.579e-5
1.303,   6.585e-5
1.305,   6.560e-5
1.307,   6.554e-5
1.309,   6.600e-5
1.311,   6.603e-5
1.313,   6.593e-5
1.315,   6.600e-5
1.317,   6.634e-5
1.319,   6.647e-5
1.321,   6.642e-5
1.323,   6.643e-5
1.325,   6.715e-5
1.327,   6.720e-5
1.329,   6.709e-5
1.331,   6.736e-5
1.333,   6.777e-5
1.335,   6.802e-5
1.337,   6.814e-5
1.339,   6.835e-5
1.341,   6.893e-5
1.343,   6.923e-5
1.345,   6.936e-5
1.347,   6.978e-5
1.349,   7.051e-5
1.351,   7.100e-5
1.353,   7.118e-5
1.355,   7.179e-5
1.357,   7.275e-5
1.359,   7.343e-5
1.361,   7.396e-5
1.363,   7.496e-5
1.365,   7.627e-5
1.367,   7.724e-5
1.369,   7.860e-5
1.371,   7.984e-5
1.373,   8.197e-5
1.375,   8.398e-5
1.377,   8.604e-5
1.379,   8.875e-5
1.381,   9.210e-5
1.383,   9.583e-5
1.385,   9.999e-5
1.387,   1.050e-4
1.389,   1.112e-4
1.391,   1.181e-4
1.393,   1.260e-4
1.395,   1.352e-4
1.397,   1.464e-4
1.399,   1.592e-4
1.401,   1.739e-4
1.403,   1.906e-4
1.405,   2.102e-4
1.407,   2.327e-4
1.409,   2.582e-4
1.411,   2.872e-4
1.413,   3.208e-4
1.415,   3.584e-4
1.417,   4.000e-4
1.419,   4.473e-4
1.421,   5.003e-4
1.423,   5.589e-4
1.425,   6.239e-4
1.427,   6.968e-4
1.429,   7.763e-4
1.431,   8.631e-4
1.433,   9.590e-4
1.435,   1.065e-3
1.437,   1.179e-3
1.439,   1.302e-3
1.441,   1.438e-3
1.443,   1.583e-3
1.445,   1.742e-3
1.447,   1.911e-3
1.449,   2.093e-3
1.451,   2.284e-3
1.453,   2.490e-3
1.455,   2.710e-3
1.457,   2.944e-3
1.459,   3.203e-3
1.461,   3.465e-3
1.463,   3.729e-3
1.465,   4.032e-3
1.467,   4.357e-3
1.469,   4.649e-3
1.471,   5.052e-3
1.473,   5.362e-3
1.475,   5.710e-3
1.477,   6.053e-3
1.479,   6.448e-3
1.481,   6.831e-3
1.483,   7.287e-3
1.485,   7.650e-3
1.487,   8.092e-3
1.489,   8.581e-3
1.491,   8.999e-3
1.493,   9.387e-3
1.495,   9.965e-3
1.497,   1.007e-2
1.499,   1.007e-2
1.501,   1.007e-2
1.503,   1.007e-2
1.505,   1.007e-2
1.507,   1.007e-2