File: Experimental Records and Raw Data/batch3/final500/B3_BEST_500_#2_Full-195mV.txt
Feb. 22, 2023   12:55:43
Linear Sweep Voltammetry
File: d:\current work\al_oer\electrochemical test data\batch 3\500\B3_BEST_500_#2_Full-195mV.txt
Data Source:  Experiment
Instrument Model:  CHI660E
Header:
Note:

Init E (V) = 1.099

Final E (V) = 1.462

Scan Rate (V/s) = 0.010
Sample Interval (V) = 0.001
Quiet Time (sec) = 2
Sensitivity (A/V) = 0.001
Comp R (ohm) = 6.7

Results:

Channel 1:

Potential/V, Current/A
1.099,   1.209e-3
1.101,   9.490e-4
1.103,   7.747e-4
1.105,   6.589e-4
1.107,   5.793e-4
1.109,   5.232e-4
1.111,   4.815e-4
1.113,   4.490e-4
1.115,   4.240e-4
1.117,   4.049e-4
1.119,   3.900e-4
1.121,   3.772e-4
1.123,   3.664e-4
1.125,   3.580e-4
1.127,   3.515e-4
1.129,   3.461e-4
1.131,   3.416e-4
1.133,   3.389e-4
1.135,   3.363e-4
1.137,   3.340e-4
1.139,   3.329e-4
1.141,   3.321e-4
1.143,   3.317e-4
1.145,   3.315e-4
1.147,   3.315e-4
1.149,   3.323e-4
1.151,   3.329e-4
1.153,   3.337e-4
1.155,   3.351e-4
1.157,   3.368e-4
1.159,   3.384e-4
1.161,   3.397e-4
1.163,   3.412e-4
1.165,   3.432e-4
1.167,   3.448e-4
1.169,   3.462e-4
1.171,   3.483e-4
1.173,   3.504e-4
1.175,   3.520e-4
1.177,   3.540e-4
1.179,   3.557e-4
1.181,   3.581e-4
1.183,   3.601e-4
1.185,   3.621e-4
1.187,   3.633e-4
1.189,   3.657e-4
1.191,   3.678e-4
1.193,   3.695e-4
1.195,   3.714e-4
1.197,   3.740e-4
1.199,   3.758e-4
1.201,   3.769e-4
1.203,   3.790e-4
1.205,   3.808e-4
1.207,   3.827e-4
1.209,   3.839e-4
1.211,   3.850e-4
1.213,   3.873e-4
1.215,   3.878e-4
1.217,   3.886e-4
1.219,   3.893e-4
1.221,   3.903e-4
1.223,   3.914e-4
1.225,   3.913e-4
1.227,   3.915e-4
1.229,   3.919e-4
1.231,   3.922e-4
1.233,   3.921e-4
1.235,   3.926e-4
1.237,   3.911e-4
1.239,   3.918e-4
1.241,   3.909e-4
1.243,   3.896e-4
1.245,   3.890e-4
1.247,   3.902e-4
1.249,   3.926e-4
1.251,   3.950e-4
1.253,   3.846e-4
1.255,   3.743e-4
1.257,   3.789e-4
1.259,   3.798e-4
1.261,   3.725e-4
1.263,   3.771e-4
1.265,   3.698e-4
1.267,   3.679e-4
1.269,   3.690e-4
1.271,   3.653e-4
1.273,   3.618e-4
1.275,   3.588e-4
1.277,   3.578e-4
1.279,   3.554e-4
1.281,   3.510e-4
1.283,   3.467e-4
1.285,   3.506e-4
1.287,   3.441e-4
1.289,   3.411e-4
1.291,   3.362e-4
1.293,   3.425e-4
1.295,   3.265e-4
1.297,   3.273e-4
1.299,   3.310e-4
1.301,   3.346e-4
1.303,   3.317e-4
1.305,   3.243e-4
1.307,   3.137e-4
1.309,   3.089e-4
1.311,   3.212e-4
1.313,   3.142e-4
1.315,   3.119e-4
1.317,   3.102e-4
1.319,   3.093e-4
1.321,   3.085e-4
1.323,   3.005e-4
1.325,   3.094e-4
1.327,   3.063e-4
1.329,   3.016e-4
1.331,   3.027e-4
1.333,   3.097e-4
1.335,   2.958e-4
1.337,   3.023e-4
1.339,   3.044e-4
1.341,   3.087e-4
1.343,   2.896e-4
1.345,   3.045e-4
1.347,   3.163e-4
1.349,   3.210e-4
1.351,   3.172e-4
1.353,   3.008e-4
1.355,   3.004e-4
1.357,   3.311e-4
1.359,   3.044e-4
1.361,   3.317e-4
1.363,   3.224e-4
1.365,   3.230e-4
1.367,   3.307e-4
1.369,   3.374e-4
1.371,   3.469e-4
1.373,   3.509e-4
1.375,   3.390e-4
1.377,   3.762e-4
1.379,   3.508e-4
1.381,   4.051e-4
1.383,   3.871e-4
1.385,   3.735e-4
1.387,   3.919e-4
1.389,   4.204e-4
1.391,   4.297e-4
1.393,   4.451e-4
1.395,   5.060e-4
1.397,   5.770e-4
1.399,   5.522e-4
1.401,   6.416e-4
1.403,   6.503e-4
1.405,   7.504e-4
1.407,   7.717e-4
1.409,   8.507e-4
1.411,   9.552e-4
1.413,   1.046e-3
1.415,   1.143e-3
1.417,   1.257e-3
1.419,   1.383e-3
1.421,   1.525e-3
1.423,   1.677e-3
1.425,   1.849e-3
1.427,   2.067e-3
1.429,   2.295e-3
1.431,   2.471e-3
1.433,   2.803e-3
1.435,   2.993e-3
1.437,   3.402e-3
1.439,   3.665e-3
1.441,   3.979e-3
1.443,   4.387e-3
1.445,   4.856e-3
1.447,   5.456e-3
1.449,   5.903e-3
1.451,   6.527e-3
1.453,   7.077e-3
1.455,   8.210e-3
1.457,   9.642e-3
1.459,   1.006e-2
1.461,   1.006e-2
1.462,   1.006e-2