File: Experimental Records and Raw Data/batch3/final500/B3_BEST_500_#4_Full-238mV.txt
Feb. 22, 2023   13:13:56
Linear Sweep Voltammetry
File: d:\current work\al_oer\electrochemical test data\batch 3\500\B3_BEST_500_#4_Full-238mV.txt
Data Source:  Experiment
Instrument Model:  CHI660E
Header:
Note:

Init E (V) = 1.099

Final E (V) = 1.527

Scan Rate (V/s) = 0.010
Sample Interval (V) = 0.001
Quiet Time (sec) = 2
Sensitivity (A/V) = 0.001
Comp R (ohm) = 5.4

Results:

Channel 1:

Potential/V, Current/A
1.099,   1.371e-4
1.101,   1.284e-4
1.103,   1.148e-4
1.105,   1.039e-4
1.107,   9.536e-5
1.109,   8.839e-5
1.111,   8.255e-5
1.113,   7.772e-5
1.115,   7.350e-5
1.117,   7.015e-5
1.119,   6.721e-5
1.121,   6.449e-5
1.123,   6.218e-5
1.125,   6.032e-5
1.127,   5.855e-5
1.129,   5.696e-5
1.131,   5.566e-5
1.133,   5.460e-5
1.135,   5.354e-5
1.137,   5.246e-5
1.139,   5.170e-5
1.141,   5.107e-5
1.143,   5.040e-5
1.145,   4.991e-5
1.147,   4.925e-5
1.149,   4.899e-5
1.151,   4.858e-5
1.153,   4.815e-5
1.155,   4.795e-5
1.157,   4.776e-5
1.159,   4.754e-5
1.161,   4.736e-5
1.163,   4.721e-5
1.165,   4.731e-5
1.167,   4.719e-5
1.169,   4.706e-5
1.171,   4.714e-5
1.173,   4.723e-5
1.175,   4.722e-5
1.177,   4.722e-5
1.179,   4.728e-5
1.181,   4.742e-5
1.183,   4.756e-5
1.185,   4.757e-5
1.187,   4.766e-5
1.189,   4.786e-5
1.191,   4.799e-5
1.193,   4.796e-5
1.195,   4.802e-5
1.197,   4.837e-5
1.199,   4.840e-5
1.201,   4.833e-5
1.203,   4.847e-5
1.205,   4.864e-5
1.207,   4.863e-5
1.209,   4.880e-5
1.211,   4.866e-5
1.213,   4.878e-5
1.215,   4.879e-5
1.217,   4.872e-5
1.219,   4.868e-5
1.221,   4.878e-5
1.223,   4.878e-5
1.225,   4.861e-5
1.227,   4.849e-5
1.229,   4.866e-5
1.231,   4.858e-5
1.233,   4.836e-5
1.235,   4.839e-5
1.237,   4.831e-5
1.239,   4.814e-5
1.241,   4.810e-5
1.243,   4.787e-5
1.245,   4.791e-5
1.247,   4.782e-5
1.249,   4.752e-5
1.251,   4.746e-5
1.253,   4.749e-5
1.255,   4.736e-5
1.257,   4.712e-5
1.259,   4.698e-5
1.261,   4.717e-5
1.263,   4.688e-5
1.265,   4.671e-5
1.267,   4.662e-5
1.269,   4.662e-5
1.271,   4.642e-5
1.273,   4.634e-5
1.275,   4.614e-5
1.277,   4.622e-5
1.279,   4.607e-5
1.281,   4.589e-5
1.283,   4.582e-5
1.285,   4.584e-5
1.287,   4.584e-5
1.289,   4.566e-5
1.291,   4.557e-5
1.293,   4.582e-5
1.295,   4.571e-5
1.297,   4.554e-5
1.299,   4.568e-5
1.301,   4.575e-5
1.303,   4.576e-5
1.305,   4.576e-5
1.307,   4.567e-5
1.309,   4.592e-5
1.311,   4.605e-5
1.313,   4.592e-5
1.315,   4.615e-5
1.317,   4.635e-5
1.319,   4.644e-5
1.321,   4.635e-5
1.323,   4.653e-5
1.325,   4.702e-5
1.327,   4.702e-5
1.329,   4.702e-5
1.331,   4.732e-5
1.333,   4.754e-5
1.335,   4.763e-5
1.337,   4.781e-5
1.339,   4.794e-5
1.341,   4.829e-5
1.343,   4.850e-5
1.345,   4.857e-5
1.347,   4.885e-5
1.349,   4.920e-5
1.351,   4.948e-5
1.353,   4.966e-5
1.355,   4.992e-5
1.357,   5.043e-5
1.359,   5.067e-5
1.361,   5.086e-5
1.363,   5.143e-5
1.365,   5.196e-5
1.367,   5.233e-5
1.369,   5.280e-5
1.371,   5.331e-5
1.373,   5.414e-5
1.375,   5.481e-5
1.377,   5.545e-5
1.379,   5.632e-5
1.381,   5.748e-5
1.383,   5.861e-5
1.385,   5.978e-5
1.387,   6.128e-5
1.389,   6.325e-5
1.391,   6.504e-5
1.393,   6.718e-5
1.395,   6.968e-5
1.397,   7.259e-5
1.399,   7.575e-5
1.401,   7.960e-5
1.403,   8.362e-5
1.405,   8.866e-5
1.407,   9.389e-5
1.409,   9.977e-5
1.411,   1.068e-4
1.413,   1.149e-4
1.415,   1.239e-4
1.417,   1.340e-4
1.419,   1.454e-4
1.421,   1.589e-4
1.423,   1.737e-4
1.425,   1.903e-4
1.427,   2.094e-4
1.429,   2.311e-4
1.431,   2.556e-4
1.433,   2.833e-4
1.435,   3.147e-4
1.437,   3.506e-4
1.439,   3.908e-4
1.441,   4.362e-4
1.443,   4.877e-4
1.445,   5.457e-4
1.447,   6.108e-4
1.449,   6.834e-4
1.451,   7.648e-4
1.453,   8.564e-4
1.455,   9.572e-4
1.457,   1.068e-3
1.459,   1.190e-3
1.461,   1.325e-3
1.463,   1.471e-3
1.465,   1.630e-3
1.467,   1.810e-3
1.469,   1.997e-3
1.471,   2.197e-3
1.473,   2.415e-3
1.475,   2.637e-3
1.477,   2.892e-3
1.479,   3.137e-3
1.481,   3.381e-3
1.483,   3.653e-3
1.485,   3.895e-3
1.487,   4.188e-3
1.489,   4.469e-3
1.491,   5.057e-3
1.493,   5.599e-3
1.495,   6.007e-3
1.497,   6.312e-3
1.499,   6.677e-3
1.501,   7.010e-3
1.503,   7.173e-3
1.505,   8.147e-3
1.507,   8.701e-3
1.509,   8.605e-3
1.511,   8.823e-3
1.513,   8.938e-3
1.515,   9.569e-3
1.517,   1.006e-2
1.519,   1.006e-2
1.521,   1.006e-2
1.523,   1.006e-2
1.525,   1.006e-2
1.527,   1.006e-2