File: Experimental Records and Raw Data/batch3/final500/B3_VARIANCE_500_#5_Full(#13)-219mV.txt
Feb. 24, 2023   13:35:07
Linear Sweep Voltammetry
File: d:\current work\al_oer\electrochemical test data\batch 3\500\B3_VARIANCE_500_#5_Full(#13)-219mV.txt
Data Source:  Experiment
Instrument Model:  CHI660E
Header:
Note:

Init E (V) = 1.098

Final E (V) = 1.518

Scan Rate (V/s) = 0.010
Sample Interval (V) = 0.001
Quiet Time (sec) = 2
Sensitivity (A/V) = 0.001
Comp R (ohm) = 4.8

Results:

Channel 1:

Potential/V, Current/A
1.098,   2.478e-4
1.100,   2.205e-4
1.102,   1.873e-4
1.104,   1.630e-4
1.106,   1.454e-4
1.108,   1.324e-4
1.110,   1.227e-4
1.112,   1.152e-4
1.114,   1.092e-4
1.116,   1.045e-4
1.118,   1.009e-4
1.120,   9.762e-5
1.122,   9.493e-5
1.124,   9.300e-5
1.126,   9.117e-5
1.128,   8.950e-5
1.130,   8.806e-5
1.132,   8.717e-5
1.134,   8.619e-5
1.136,   8.528e-5
1.138,   8.451e-5
1.140,   8.395e-5
1.142,   8.338e-5
1.144,   8.288e-5
1.146,   8.239e-5
1.148,   8.216e-5
1.150,   8.195e-5
1.152,   8.145e-5
1.154,   8.116e-5
1.156,   8.115e-5
1.158,   8.101e-5
1.160,   8.075e-5
1.162,   8.055e-5
1.164,   8.076e-5
1.166,   8.070e-5
1.168,   8.041e-5
1.170,   8.064e-5
1.172,   8.069e-5
1.174,   8.060e-5
1.176,   8.062e-5
1.178,   8.048e-5
1.180,   8.083e-5
1.182,   8.085e-5
1.184,   8.083e-5
1.186,   8.078e-5
1.188,   8.110e-5
1.190,   8.132e-5
1.192,   8.123e-5
1.194,   8.112e-5
1.196,   8.162e-5
1.198,   8.161e-5
1.200,   8.166e-5
1.202,   8.163e-5
1.204,   8.193e-5
1.206,   8.196e-5
1.208,   8.197e-5
1.210,   8.199e-5
1.212,   8.228e-5
1.214,   8.246e-5
1.216,   8.245e-5
1.218,   8.246e-5
1.220,   8.269e-5
1.222,   8.283e-5
1.224,   8.271e-5
1.226,   8.284e-5
1.228,   8.295e-5
1.230,   8.303e-5
1.232,   8.299e-5
1.234,   8.301e-5
1.236,   8.328e-5
1.238,   8.333e-5
1.240,   8.322e-5
1.242,   8.315e-5
1.244,   8.338e-5
1.246,   8.339e-5
1.248,   8.332e-5
1.250,   8.334e-5
1.252,   8.345e-5
1.254,   8.352e-5
1.256,   8.337e-5
1.258,   8.335e-5
1.260,   8.368e-5
1.262,   8.363e-5
1.264,   8.349e-5
1.266,   8.352e-5
1.268,   8.371e-5
1.270,   8.367e-5
1.272,   8.374e-5
1.274,   8.359e-5
1.276,   8.381e-5
1.278,   8.394e-5
1.280,   8.380e-5
1.282,   8.361e-5
1.284,   8.395e-5
1.286,   8.409e-5
1.288,   8.404e-5
1.290,   8.397e-5
1.292,   8.431e-5
1.294,   8.449e-5
1.296,   8.443e-5
1.298,   8.448e-5
1.300,   8.471e-5
1.302,   8.485e-5
1.304,   8.493e-5
1.306,   8.489e-5
1.308,   8.528e-5
1.310,   8.556e-5
1.312,   8.561e-5
1.314,   8.579e-5
1.316,   8.619e-5
1.318,   8.655e-5
1.320,   8.663e-5
1.322,   8.693e-5
1.324,   8.760e-5
1.326,   8.782e-5
1.328,   8.802e-5
1.330,   8.843e-5
1.332,   8.912e-5
1.334,   8.962e-5
1.336,   9.019e-5
1.338,   9.062e-5
1.340,   9.155e-5
1.342,   9.208e-5
1.344,   9.271e-5
1.346,   9.342e-5
1.348,   9.462e-5
1.350,   9.546e-5
1.352,   9.643e-5
1.354,   9.766e-5
1.356,   9.922e-5
1.358,   1.006e-4
1.360,   1.021e-4
1.362,   1.041e-4
1.364,   1.061e-4
1.366,   1.083e-4
1.368,   1.110e-4
1.370,   1.137e-4
1.372,   1.172e-4
1.374,   1.208e-4
1.376,   1.247e-4
1.378,   1.294e-4
1.380,   1.347e-4
1.382,   1.408e-4
1.384,   1.473e-4
1.386,   1.550e-4
1.388,   1.640e-4
1.390,   1.736e-4
1.392,   1.845e-4
1.394,   1.968e-4
1.396,   2.110e-4
1.398,   2.267e-4
1.400,   2.443e-4
1.402,   2.640e-4
1.404,   2.863e-4
1.406,   3.108e-4
1.408,   3.379e-4
1.410,   3.680e-4
1.412,   4.015e-4
1.414,   4.387e-4
1.416,   4.789e-4
1.418,   5.237e-4
1.420,   5.722e-4
1.422,   6.256e-4
1.424,   6.830e-4
1.426,   7.522e-4
1.428,   8.186e-4
1.430,   8.922e-4
1.432,   9.708e-4
1.434,   1.056e-3
1.436,   1.148e-3
1.438,   1.245e-3
1.440,   1.349e-3
1.442,   1.459e-3
1.444,   1.576e-3
1.446,   1.701e-3
1.448,   1.831e-3
1.450,   1.968e-3
1.452,   2.113e-3
1.454,   2.264e-3
1.456,   2.423e-3
1.458,   2.588e-3
1.460,   2.759e-3
1.462,   2.935e-3
1.464,   3.102e-3
1.466,   3.290e-3
1.468,   3.475e-3
1.470,   3.671e-3
1.472,   4.093e-3
1.474,   4.289e-3
1.476,   4.516e-3
1.478,   4.729e-3
1.480,   4.952e-3
1.482,   5.193e-3
1.484,   5.436e-3
1.486,   5.731e-3
1.488,   6.294e-3
1.490,   6.522e-3
1.492,   6.752e-3
1.494,   7.018e-3
1.496,   7.278e-3
1.498,   7.657e-3
1.500,   8.095e-3
1.502,   8.356e-3
1.504,   8.605e-3
1.506,   8.900e-3
1.508,   9.152e-3
1.510,   9.382e-3
1.512,   1.007e-2
1.514,   1.007e-2
1.516,   1.007e-2
1.518,   1.007e-2