File: Experimental Records and Raw Data/batch3/final500/B3_VARIANCE_500_#2_High_Quality(#23)-229mV.txt
Feb. 22, 2023   13:02:30
Linear Sweep Voltammetry
File: d:\current work\al_oer\electrochemical test data\batch 3\500\B3_VARIANCE_500_#2_High_Quality(#23)-229mV.txt
Data Source:  Experiment
Instrument Model:  CHI660E
Header:
Note:

Init E (V) = 1.100

Final E (V) = 1.500

Scan Rate (V/s) = 0.010
Sample Interval (V) = 0.001
Quiet Time (sec) = 2
Sensitivity (A/V) = 0.001
Comp R (ohm) = 5.4

Results:

Channel 1:

Potential/V, Current/A
1.100,   1.632e-4
1.102,   1.570e-4
1.104,   1.415e-4
1.106,   1.291e-4
1.108,   1.196e-4
1.110,   1.117e-4
1.112,   1.053e-4
1.114,   9.982e-5
1.116,   9.535e-5
1.118,   9.164e-5
1.120,   8.835e-5
1.122,   8.530e-5
1.124,   8.267e-5
1.126,   8.068e-5
1.128,   7.864e-5
1.130,   7.683e-5
1.132,   7.516e-5
1.134,   7.414e-5
1.136,   7.275e-5
1.138,   7.153e-5
1.140,   7.063e-5
1.142,   6.988e-5
1.144,   6.903e-5
1.146,   6.841e-5
1.148,   6.761e-5
1.150,   6.734e-5
1.152,   6.677e-5
1.154,   6.623e-5
1.156,   6.586e-5
1.158,   6.582e-5
1.160,   6.537e-5
1.162,   6.508e-5
1.164,   6.481e-5
1.166,   6.486e-5
1.168,   6.471e-5
1.170,   6.435e-5
1.172,   6.457e-5
1.174,   6.446e-5
1.176,   6.447e-5
1.178,   6.430e-5
1.180,   6.421e-5
1.182,   6.450e-5
1.184,   6.462e-5
1.186,   6.433e-5
1.188,   6.452e-5
1.190,   6.460e-5
1.192,   6.480e-5
1.194,   6.462e-5
1.196,   6.465e-5
1.198,   6.500e-5
1.200,   6.516e-5
1.202,   6.494e-5
1.204,   6.524e-5
1.206,   6.527e-5
1.208,   6.541e-5
1.210,   6.532e-5
1.212,   6.548e-5
1.214,   6.566e-5
1.216,   6.573e-5
1.218,   6.557e-5
1.220,   6.575e-5
1.222,   6.586e-5
1.224,   6.604e-5
1.226,   6.584e-5
1.228,   6.596e-5
1.230,   6.619e-5
1.232,   6.620e-5
1.234,   6.603e-5
1.236,   6.635e-5
1.238,   6.624e-5
1.240,   6.628e-5
1.242,   6.640e-5
1.244,   6.617e-5
1.246,   6.650e-5
1.248,   6.638e-5
1.250,   6.630e-5
1.252,   6.634e-5
1.254,   6.644e-5
1.256,   6.653e-5
1.258,   6.626e-5
1.260,   6.640e-5
1.262,   6.672e-5
1.264,   6.641e-5
1.266,   6.648e-5
1.268,   6.646e-5
1.270,   6.674e-5
1.272,   6.667e-5
1.274,   6.671e-5
1.276,   6.661e-5
1.278,   6.681e-5
1.280,   6.678e-5
1.282,   6.679e-5
1.284,   6.674e-5
1.286,   6.707e-5
1.288,   6.708e-5
1.290,   6.704e-5
1.292,   6.704e-5
1.294,   6.756e-5
1.296,   6.738e-5
1.298,   6.740e-5
1.300,   6.757e-5
1.302,   6.783e-5
1.304,   6.781e-5
1.306,   6.800e-5
1.308,   6.798e-5
1.310,   6.840e-5
1.312,   6.848e-5
1.314,   6.863e-5
1.316,   6.872e-5
1.318,   6.917e-5
1.320,   6.932e-5
1.322,   6.950e-5
1.324,   6.953e-5
1.326,   7.041e-5
1.328,   7.030e-5
1.330,   7.031e-5
1.332,   7.081e-5
1.334,   7.123e-5
1.336,   7.150e-5
1.338,   7.189e-5
1.340,   7.201e-5
1.342,   7.271e-5
1.344,   7.314e-5
1.346,   7.329e-5
1.348,   7.378e-5
1.350,   7.452e-5
1.352,   7.500e-5
1.354,   7.538e-5
1.356,   7.595e-5
1.358,   7.692e-5
1.360,   7.752e-5
1.362,   7.795e-5
1.364,   7.917e-5
1.366,   7.959e-5
1.368,   8.082e-5
1.370,   8.146e-5
1.372,   8.239e-5
1.374,   8.393e-5
1.376,   8.505e-5
1.378,   8.643e-5
1.380,   8.769e-5
1.382,   8.970e-5
1.384,   9.160e-5
1.386,   9.358e-5
1.388,   9.582e-5
1.390,   9.886e-5
1.392,   1.019e-4
1.394,   1.049e-4
1.396,   1.091e-4
1.398,   1.134e-4
1.400,   1.184e-4
1.402,   1.241e-4
1.404,   1.302e-4
1.406,   1.381e-4
1.408,   1.461e-4
1.410,   1.558e-4
1.412,   1.665e-4
1.414,   1.796e-4
1.416,   1.932e-4
1.418,   2.096e-4
1.420,   2.276e-4
1.422,   2.488e-4
1.424,   2.733e-4
1.426,   2.993e-4
1.428,   3.314e-4
1.430,   3.660e-4
1.432,   4.067e-4
1.434,   4.511e-4
1.436,   5.031e-4
1.438,   5.609e-4
1.440,   6.289e-4
1.442,   7.016e-4
1.444,   7.875e-4
1.446,   8.835e-4
1.448,   9.920e-4
1.450,   1.112e-3
1.452,   1.251e-3
1.454,   1.404e-3
1.456,   1.579e-3
1.458,   1.770e-3
1.460,   1.989e-3
1.462,   2.228e-3
1.464,   2.503e-3
1.466,   2.797e-3
1.468,   3.132e-3
1.470,   3.484e-3
1.472,   3.868e-3
1.474,   4.282e-3
1.476,   4.758e-3
1.478,   5.253e-3
1.480,   5.801e-3
1.482,   6.355e-3
1.484,   6.940e-3
1.486,   7.665e-3
1.488,   8.359e-3
1.490,   9.072e-3
1.492,   9.691e-3
1.494,   1.006e-2
1.496,   1.006e-2
1.498,   1.006e-2
1.500,   1.006e-2