File: Experimental Records and Raw Data/batch3/final500/B3_VARIANCE_500_#5_High_Quality(#26)-423mV.txt
Feb. 24, 2023   15:11:15
Linear Sweep Voltammetry
File: d:\current work\al_oer\electrochemical test data\batch 3\500\B3_VARIANCE_500_#5_High_Quality(#26)-423mV.txt
Data Source:  Experiment
Instrument Model:  CHI660E
Header:
Note:

Init E (V) = 1.099

Final E (V) = 1.669

Scan Rate (V/s) = 0.010
Sample Interval (V) = 0.001
Quiet Time (sec) = 2
Sensitivity (A/V) = 0.001
Comp R (ohm) = 4.6

Results:

Channel 1:

Potential/V, Current/A
1.099,   3.937e-8
1.101,   3.520e-7
1.103,   4.410e-8
1.105,   -1.945e-7
1.107,   -4.056e-7
1.109,   -6.095e-7
1.111,   -6.528e-7
1.113,   -7.961e-7
1.115,   -8.591e-7
1.117,   -8.497e-7
1.119,   -9.151e-7
1.121,   -8.497e-7
1.123,   -8.631e-7
1.125,   -7.765e-7
1.127,   -8.095e-7
1.129,   -7.843e-7
1.131,   -6.741e-7
1.133,   -6.323e-7
1.135,   -5.985e-7
1.137,   -4.804e-7
1.139,   -4.205e-7
1.141,   -3.055e-7
1.143,   -2.583e-7
1.145,   -2.134e-7
1.147,   -1.512e-7
1.149,   -1.732e-8
1.151,   4.331e-8
1.153,   7.717e-8
1.155,   2.142e-7
1.157,   2.851e-7
1.159,   4.410e-7
1.161,   5.008e-7
1.163,   5.882e-7
1.165,   6.898e-7
1.167,   7.859e-7
1.169,   8.119e-7
1.171,   9.418e-7
1.173,   1.036e-6
1.175,   1.120e-6
1.177,   1.239e-6
1.179,   1.321e-6
1.181,   1.354e-6
1.183,   1.547e-6
1.185,   1.574e-6
1.187,   1.736e-6
1.189,   1.802e-6
1.191,   1.921e-6
1.193,   1.917e-6
1.195,   2.050e-6
1.197,   2.124e-6
1.199,   2.236e-6
1.201,   2.276e-6
1.203,   2.463e-6
1.205,   2.546e-6
1.207,   2.593e-6
1.209,   2.695e-6
1.211,   2.807e-6
1.213,   2.906e-6
1.215,   2.929e-6
1.217,   3.059e-6
1.219,   3.163e-6
1.221,   3.237e-6
1.223,   3.305e-6
1.225,   3.388e-6
1.227,   3.514e-6
1.229,   3.584e-6
1.231,   3.683e-6
1.233,   3.702e-6
1.235,   3.926e-6
1.237,   3.937e-6
1.239,   4.080e-6
1.241,   4.132e-6
1.243,   4.177e-6
1.245,   4.338e-6
1.247,   4.395e-6
1.249,   4.497e-6
1.251,   4.526e-6
1.253,   4.665e-6
1.255,   4.801e-6
1.257,   4.805e-6
1.259,   4.938e-6
1.261,   5.075e-6
1.263,   5.083e-6
1.265,   5.183e-6
1.267,   5.306e-6
1.269,   5.392e-6
1.271,   5.468e-6
1.273,   5.593e-6
1.275,   5.664e-6
1.277,   5.810e-6
1.279,   5.906e-6
1.281,   5.977e-6
1.283,   6.112e-6
1.285,   6.207e-6
1.287,   6.327e-6
1.289,   6.405e-6
1.291,   6.516e-6
1.293,   6.653e-6
1.295,   6.706e-6
1.297,   6.834e-6
1.299,   7.004e-6
1.301,   7.120e-6
1.303,   7.219e-6
1.305,   7.416e-6
1.307,   7.531e-6
1.309,   7.655e-6
1.311,   7.772e-6
1.313,   7.898e-6
1.315,   8.067e-6
1.317,   8.312e-6
1.319,   8.367e-6
1.321,   8.572e-6
1.323,   8.736e-6
1.325,   8.892e-6
1.327,   9.092e-6
1.329,   9.383e-6
1.331,   9.492e-6
1.333,   9.723e-6
1.335,   9.985e-6
1.337,   1.020e-5
1.339,   1.044e-5
1.341,   1.068e-5
1.343,   1.095e-5
1.345,   1.121e-5
1.347,   1.144e-5
1.349,   1.179e-5
1.351,   1.217e-5
1.353,   1.252e-5
1.355,   1.287e-5
1.357,   1.333e-5
1.359,   1.377e-5
1.361,   1.420e-5
1.363,   1.481e-5
1.365,   1.541e-5
1.367,   1.604e-5
1.369,   1.674e-5
1.371,   1.755e-5
1.373,   1.837e-5
1.375,   1.931e-5
1.377,   2.024e-5
1.379,   2.136e-5
1.381,   2.245e-5
1.383,   2.364e-5
1.385,   2.476e-5
1.387,   2.609e-5
1.389,   2.739e-5
1.391,   2.878e-5
1.393,   3.026e-5
1.395,   3.173e-5
1.397,   3.323e-5
1.399,   3.476e-5
1.401,   3.648e-5
1.403,   3.822e-5
1.405,   4.004e-5
1.407,   4.201e-5
1.409,   4.417e-5
1.411,   4.642e-5
1.413,   4.885e-5
1.415,   5.151e-5
1.417,   5.425e-5
1.419,   5.722e-5
1.421,   6.060e-5
1.423,   6.416e-5
1.425,   6.797e-5
1.427,   7.216e-5
1.429,   7.677e-5
1.431,   8.162e-5
1.433,   8.686e-5
1.435,   9.258e-5
1.437,   9.870e-5
1.439,   1.054e-4
1.441,   1.124e-4
1.443,   1.198e-4
1.445,   1.279e-4
1.447,   1.364e-4
1.449,   1.453e-4
1.451,   1.547e-4
1.453,   1.647e-4
1.455,   1.750e-4
1.457,   1.859e-4
1.459,   1.972e-4
1.461,   2.089e-4
1.463,   2.211e-4
1.465,   2.337e-4
1.467,   2.467e-4
1.469,   2.601e-4
1.471,   2.738e-4
1.473,   2.879e-4
1.475,   3.024e-4
1.477,   3.169e-4
1.479,   3.316e-4
1.481,   3.468e-4
1.483,   3.621e-4
1.485,   3.779e-4
1.487,   3.936e-4
1.489,   4.097e-4
1.491,   4.255e-4
1.493,   4.414e-4
1.495,   4.573e-4
1.497,   4.731e-4
1.499,   4.896e-4
1.501,   5.051e-4
1.503,   5.210e-4
1.505,   5.366e-4
1.507,   5.527e-4
1.509,   5.685e-4
1.511,   5.843e-4
1.513,   6.001e-4
1.515,   6.147e-4
1.517,   6.311e-4
1.519,   6.468e-4
1.521,   6.618e-4
1.523,   6.771e-4
1.525,   6.924e-4
1.527,   7.072e-4
1.529,   7.227e-4
1.531,   7.376e-4
1.533,   7.523e-4
1.535,   7.670e-4
1.537,   7.825e-4
1.539,   7.976e-4
1.541,   8.133e-4
1.543,   8.287e-4
1.545,   8.441e-4
1.547,   8.592e-4
1.549,   8.753e-4
1.551,   8.909e-4
1.553,   9.069e-4
1.555,   9.229e-4
1.557,   9.391e-4
1.559,   9.561e-4
1.561,   9.729e-4
1.563,   9.897e-4
1.565,   1.007e-3
1.567,   1.024e-3
1.569,   1.042e-3
1.571,   1.060e-3
1.573,   1.079e-3
1.575,   1.097e-3
1.577,   1.116e-3
1.579,   1.135e-3
1.581,   1.153e-3
1.583,   1.172e-3
1.585,   1.193e-3
1.587,   1.213e-3
1.589,   1.233e-3
1.591,   1.255e-3
1.593,   1.276e-3
1.595,   1.296e-3
1.597,   1.319e-3
1.599,   1.341e-3
1.601,   1.363e-3
1.603,   1.386e-3
1.605,   1.408e-3
1.607,   1.431e-3
1.609,   1.455e-3
1.611,   1.477e-3
1.613,   1.498e-3
1.615,   1.521e-3
1.617,   1.545e-3
1.619,   1.572e-3
1.621,   1.597e-3
1.623,   1.618e-3
1.625,   1.640e-3
1.627,   1.663e-3
1.629,   1.686e-3
1.631,   1.711e-3
1.633,   1.736e-3
1.635,   1.758e-3
1.637,   1.780e-3
1.639,   1.803e-3
1.641,   1.825e-3
1.643,   1.845e-3
1.645,   1.867e-3
1.647,   1.890e-3
1.649,   1.911e-3
1.651,   1.931e-3
1.653,   1.952e-3
1.655,   1.972e-3
1.657,   1.991e-3
1.659,   2.011e-3
1.661,   2.029e-3
1.663,   2.048e-3
1.665,   2.064e-3
1.667,   2.082e-3
1.669,   2.103e-3