File: Experimental Records and Raw Data/batch3/final500/B3_VARIANCE_500_#4_High_Quality(#25)-259mV.txt
Feb. 24, 2023   15:05:31
Linear Sweep Voltammetry
File: d:\current work\al_oer\electrochemical test data\batch 3\500\B3_VARIANCE_500_#4_High_Quality(#25)-259mV.txt
Data Source:  Experiment
Instrument Model:  CHI660E
Header:
Note:

Init E (V) = 1.099

Final E (V) = 1.576

Scan Rate (V/s) = 0.010
Sample Interval (V) = 0.001
Quiet Time (sec) = 2
Sensitivity (A/V) = 0.001
Comp R (ohm) = 4.8

Results:

Channel 1:

Potential/V, Current/A
1.099,   3.697e-5
1.101,   3.559e-5
1.103,   3.198e-5
1.105,   2.922e-5
1.107,   2.706e-5
1.109,   2.527e-5
1.111,   2.380e-5
1.113,   2.260e-5
1.115,   2.162e-5
1.117,   2.076e-5
1.119,   2.006e-5
1.121,   1.945e-5
1.123,   1.888e-5
1.125,   1.848e-5
1.127,   1.810e-5
1.129,   1.766e-5
1.131,   1.739e-5
1.133,   1.717e-5
1.135,   1.694e-5
1.137,   1.670e-5
1.139,   1.656e-5
1.141,   1.629e-5
1.143,   1.625e-5
1.145,   1.613e-5
1.147,   1.593e-5
1.149,   1.589e-5
1.151,   1.576e-5
1.153,   1.570e-5
1.155,   1.569e-5
1.157,   1.566e-5
1.159,   1.563e-5
1.161,   1.557e-5
1.163,   1.555e-5
1.165,   1.553e-5
1.167,   1.556e-5
1.169,   1.548e-5
1.171,   1.555e-5
1.173,   1.562e-5
1.175,   1.556e-5
1.177,   1.557e-5
1.179,   1.562e-5
1.181,   1.563e-5
1.183,   1.572e-5
1.185,   1.570e-5
1.187,   1.570e-5
1.189,   1.581e-5
1.191,   1.581e-5
1.193,   1.583e-5
1.195,   1.591e-5
1.197,   1.602e-5
1.199,   1.605e-5
1.201,   1.606e-5
1.203,   1.607e-5
1.205,   1.623e-5
1.207,   1.626e-5
1.209,   1.633e-5
1.211,   1.634e-5
1.213,   1.640e-5
1.215,   1.641e-5
1.217,   1.644e-5
1.219,   1.647e-5
1.221,   1.656e-5
1.223,   1.670e-5
1.225,   1.671e-5
1.227,   1.666e-5
1.229,   1.677e-5
1.231,   1.677e-5
1.233,   1.678e-5
1.235,   1.683e-5
1.237,   1.692e-5
1.239,   1.700e-5
1.241,   1.702e-5
1.243,   1.701e-5
1.245,   1.714e-5
1.247,   1.713e-5
1.249,   1.715e-5
1.251,   1.726e-5
1.253,   1.724e-5
1.255,   1.728e-5
1.257,   1.726e-5
1.259,   1.735e-5
1.261,   1.746e-5
1.263,   1.747e-5
1.265,   1.748e-5
1.267,   1.755e-5
1.269,   1.768e-5
1.271,   1.771e-5
1.273,   1.773e-5
1.275,   1.775e-5
1.277,   1.787e-5
1.279,   1.790e-5
1.281,   1.794e-5
1.283,   1.797e-5
1.285,   1.810e-5
1.287,   1.819e-5
1.289,   1.822e-5
1.291,   1.823e-5
1.293,   1.843e-5
1.295,   1.849e-5
1.297,   1.851e-5
1.299,   1.863e-5
1.301,   1.872e-5
1.303,   1.881e-5
1.305,   1.889e-5
1.307,   1.898e-5
1.309,   1.915e-5
1.311,   1.920e-5
1.313,   1.934e-5
1.315,   1.938e-5
1.317,   1.954e-5
1.319,   1.969e-5
1.321,   1.973e-5
1.323,   1.984e-5
1.325,   2.008e-5
1.327,   2.016e-5
1.329,   2.034e-5
1.331,   2.044e-5
1.333,   2.064e-5
1.335,   2.081e-5
1.337,   2.095e-5
1.339,   2.106e-5
1.341,   2.128e-5
1.343,   2.147e-5
1.345,   2.158e-5
1.347,   2.177e-5
1.349,   2.199e-5
1.351,   2.223e-5
1.353,   2.244e-5
1.355,   2.263e-5
1.357,   2.289e-5
1.359,   2.310e-5
1.361,   2.335e-5
1.363,   2.369e-5
1.365,   2.400e-5
1.367,   2.433e-5
1.369,   2.468e-5
1.371,   2.503e-5
1.373,   2.551e-5
1.375,   2.608e-5
1.377,   2.647e-5
1.379,   2.704e-5
1.381,   2.778e-5
1.383,   2.855e-5
1.385,   2.928e-5
1.387,   3.021e-5
1.389,   3.133e-5
1.391,   3.250e-5
1.393,   3.372e-5
1.395,   3.530e-5
1.397,   3.703e-5
1.399,   3.883e-5
1.401,   4.110e-5
1.403,   4.354e-5
1.405,   4.635e-5
1.407,   4.946e-5
1.409,   5.292e-5
1.411,   5.689e-5
1.413,   6.145e-5
1.415,   6.659e-5
1.417,   7.219e-5
1.419,   7.853e-5
1.421,   8.578e-5
1.423,   9.371e-5
1.425,   1.025e-4
1.427,   1.126e-4
1.429,   1.236e-4
1.431,   1.359e-4
1.433,   1.494e-4
1.435,   1.646e-4
1.437,   1.813e-4
1.439,   1.998e-4
1.441,   2.201e-4
1.443,   2.427e-4
1.445,   2.678e-4
1.447,   2.951e-4
1.449,   3.250e-4
1.451,   3.580e-4
1.453,   3.944e-4
1.455,   4.342e-4
1.457,   4.772e-4
1.459,   5.240e-4
1.461,   5.752e-4
1.463,   6.306e-4
1.465,   6.915e-4
1.467,   7.567e-4
1.469,   8.277e-4
1.471,   9.034e-4
1.473,   9.849e-4
1.475,   1.072e-3
1.477,   1.166e-3
1.479,   1.268e-3
1.481,   1.375e-3
1.483,   1.489e-3
1.485,   1.609e-3
1.487,   1.736e-3
1.489,   1.869e-3
1.491,   2.011e-3
1.493,   2.156e-3
1.495,   2.309e-3
1.497,   2.464e-3
1.499,   2.625e-3
1.501,   2.800e-3
1.503,   2.974e-3
1.505,   3.152e-3
1.507,   3.329e-3
1.509,   3.518e-3
1.511,   3.713e-3
1.513,   3.899e-3
1.515,   4.085e-3
1.517,   4.274e-3
1.519,   4.479e-3
1.521,   4.673e-3
1.523,   4.884e-3
1.525,   5.087e-3
1.527,   5.326e-3
1.529,   5.536e-3
1.531,   5.745e-3
1.533,   5.947e-3
1.535,   6.163e-3
1.537,   6.350e-3
1.539,   6.556e-3
1.541,   6.770e-3
1.543,   6.979e-3
1.545,   7.192e-3
1.547,   7.455e-3
1.549,   7.637e-3
1.551,   7.837e-3
1.553,   8.068e-3
1.555,   8.300e-3
1.557,   8.546e-3
1.559,   8.736e-3
1.561,   8.910e-3
1.563,   9.184e-3
1.565,   9.397e-3
1.567,   9.587e-3
1.569,   9.872e-3
1.571,   1.007e-2
1.573,   1.007e-2
1.575,   1.007e-2
1.576,   1.007e-2