File: Experimental Records and Raw Data/batch4/final500/B4_BEST_500_#2_High_Quality(#18)-229mV.txt
Mar. 29, 2023   12:03:05
Linear Sweep Voltammetry
File: d:\current work\al_oer\electrochemical test data\batch 4\500\B4_BEST_500_#2_High_Quality(#18)-229mV.txt
Data Source:  Experiment
Instrument Model:  CHI660E
Header:
Note:

Init E (V) = 1.117

Final E (V) = 1.510

Scan Rate (V/s) = 0.010
Sample Interval (V) = 0.001
Quiet Time (sec) = 2
Sensitivity (A/V) = 0.001
Comp R (ohm) = 5.8

Results:

Channel 1:

Potential/V, Current/A
1.117,   1.016e-4
1.119,   1.169e-4
1.121,   1.083e-4
1.123,   1.012e-4
1.125,   9.605e-5
1.127,   9.192e-5
1.129,   8.886e-5
1.131,   8.618e-5
1.133,   8.399e-5
1.135,   8.249e-5
1.137,   8.127e-5
1.139,   8.000e-5
1.141,   7.896e-5
1.143,   7.823e-5
1.145,   7.767e-5
1.147,   7.690e-5
1.149,   7.646e-5
1.151,   7.637e-5
1.153,   7.599e-5
1.155,   7.551e-5
1.157,   7.542e-5
1.159,   7.530e-5
1.161,   7.518e-5
1.163,   7.513e-5
1.165,   7.488e-5
1.167,   7.508e-5
1.169,   7.505e-5
1.171,   7.504e-5
1.173,   7.506e-5
1.175,   7.538e-5
1.177,   7.553e-5
1.179,   7.554e-5
1.181,   7.553e-5
1.183,   7.593e-5
1.185,   7.609e-5
1.187,   7.631e-5
1.189,   7.654e-5
1.191,   7.683e-5
1.193,   7.690e-5
1.195,   7.718e-5
1.197,   7.710e-5
1.199,   7.772e-5
1.201,   7.799e-5
1.203,   7.807e-5
1.205,   7.828e-5
1.207,   7.867e-5
1.209,   7.897e-5
1.211,   7.920e-5
1.213,   7.938e-5
1.215,   8.011e-5
1.217,   8.038e-5
1.219,   8.036e-5
1.221,   8.088e-5
1.223,   8.131e-5
1.225,   8.170e-5
1.227,   8.199e-5
1.229,   8.199e-5
1.231,   8.262e-5
1.233,   8.300e-5
1.235,   8.321e-5
1.237,   8.335e-5
1.239,   8.405e-5
1.241,   8.428e-5
1.243,   8.446e-5
1.245,   8.469e-5
1.247,   8.536e-5
1.249,   8.552e-5
1.251,   8.559e-5
1.253,   8.605e-5
1.255,   8.623e-5
1.257,   8.646e-5
1.259,   8.659e-5
1.261,   8.659e-5
1.263,   8.715e-5
1.265,   8.722e-5
1.267,   8.707e-5
1.269,   8.720e-5
1.271,   8.746e-5
1.273,   8.755e-5
1.275,   8.741e-5
1.277,   8.725e-5
1.279,   8.789e-5
1.281,   8.770e-5
1.283,   8.761e-5
1.285,   8.766e-5
1.287,   8.757e-5
1.289,   8.770e-5
1.291,   8.779e-5
1.293,   8.762e-5
1.295,   8.781e-5
1.297,   8.785e-5
1.299,   8.757e-5
1.301,   8.758e-5
1.303,   8.779e-5
1.305,   8.802e-5
1.307,   8.784e-5
1.309,   8.775e-5
1.311,   8.810e-5
1.313,   8.812e-5
1.315,   8.807e-5
1.317,   8.838e-5
1.319,   8.845e-5
1.321,   8.856e-5
1.323,   8.868e-5
1.325,   8.872e-5
1.327,   8.904e-5
1.329,   8.934e-5
1.331,   8.943e-5
1.333,   8.951e-5
1.335,   9.001e-5
1.337,   9.046e-5
1.339,   9.054e-5
1.341,   9.065e-5
1.343,   9.177e-5
1.345,   9.168e-5
1.347,   9.191e-5
1.349,   9.236e-5
1.351,   9.302e-5
1.353,   9.352e-5
1.355,   9.405e-5
1.357,   9.455e-5
1.359,   9.529e-5
1.361,   9.591e-5
1.363,   9.658e-5
1.365,   9.735e-5
1.367,   9.832e-5
1.369,   9.954e-5
1.371,   1.003e-4
1.373,   1.014e-4
1.375,   1.030e-4
1.377,   1.044e-4
1.379,   1.057e-4
1.381,   1.079e-4
1.383,   1.097e-4
1.385,   1.121e-4
1.387,   1.147e-4
1.389,   1.174e-4
1.391,   1.211e-4
1.393,   1.252e-4
1.395,   1.295e-4
1.397,   1.346e-4
1.399,   1.409e-4
1.401,   1.479e-4
1.403,   1.559e-4
1.405,   1.651e-4
1.407,   1.764e-4
1.409,   1.888e-4
1.411,   2.029e-4
1.413,   2.195e-4
1.415,   2.389e-4
1.417,   2.612e-4
1.419,   2.863e-4
1.421,   3.147e-4
1.423,   3.475e-4
1.425,   3.841e-4
1.427,   4.243e-4
1.429,   4.685e-4
1.431,   5.191e-4
1.433,   5.750e-4
1.435,   6.359e-4
1.437,   7.002e-4
1.439,   7.723e-4
1.441,   8.480e-4
1.443,   9.332e-4
1.445,   1.019e-3
1.447,   1.115e-3
1.449,   1.215e-3
1.451,   1.338e-3
1.453,   1.467e-3
1.455,   1.585e-3
1.457,   1.737e-3
1.459,   1.896e-3
1.461,   2.063e-3
1.463,   2.222e-3
1.465,   2.420e-3
1.467,   2.613e-3
1.469,   2.822e-3
1.471,   3.061e-3
1.473,   3.311e-3
1.475,   3.552e-3
1.477,   3.845e-3
1.479,   4.120e-3
1.481,   4.434e-3
1.483,   4.763e-3
1.485,   5.077e-3
1.487,   5.438e-3
1.489,   5.814e-3
1.491,   6.184e-3
1.493,   6.598e-3
1.495,   7.037e-3
1.497,   7.515e-3
1.499,   8.053e-3
1.501,   8.680e-3
1.503,   9.188e-3
1.505,   9.691e-3
1.507,   1.006e-2
1.509,   1.006e-2
1.510,   1.006e-2