File: Experimental Records and Raw Data/batch4/final500/B4_BEST_500_#6_Full-245mV.txt
Mar. 28, 2023   11:51:48
Linear Sweep Voltammetry
File: d:\current work\al_oer\electrochemical test data\batch 4\500\B4_BEST_500_#6_Full-245mV.txt
Data Source:  Experiment
Instrument Model:  CHI660E
Header:
Note:

Init E (V) = 1.136

Final E (V) = 1.593

Scan Rate (V/s) = 0.010
Sample Interval (V) = 0.001
Quiet Time (sec) = 2
Sensitivity (A/V) = 0.001
Comp R (ohm) = 5.3

Results:

Channel 1:

Potential/V, Current/A
1.136,   7.791e-4
1.138,   6.664e-4
1.140,   5.754e-4
1.142,   5.042e-4
1.144,   4.478e-4
1.146,   4.025e-4
1.148,   3.650e-4
1.150,   3.339e-4
1.152,   3.076e-4
1.154,   2.853e-4
1.156,   2.667e-4
1.158,   2.502e-4
1.160,   2.356e-4
1.162,   2.229e-4
1.164,   2.120e-4
1.166,   2.028e-4
1.168,   1.944e-4
1.170,   1.869e-4
1.172,   1.802e-4
1.174,   1.740e-4
1.176,   1.687e-4
1.178,   1.639e-4
1.180,   1.596e-4
1.182,   1.555e-4
1.184,   1.521e-4
1.186,   1.490e-4
1.188,   1.461e-4
1.190,   1.433e-4
1.192,   1.409e-4
1.194,   1.387e-4
1.196,   1.370e-4
1.198,   1.354e-4
1.200,   1.337e-4
1.202,   1.324e-4
1.204,   1.313e-4
1.206,   1.301e-4
1.208,   1.292e-4
1.210,   1.281e-4
1.212,   1.274e-4
1.214,   1.267e-4
1.216,   1.260e-4
1.218,   1.257e-4
1.220,   1.251e-4
1.222,   1.246e-4
1.224,   1.242e-4
1.226,   1.240e-4
1.228,   1.238e-4
1.230,   1.235e-4
1.232,   1.233e-4
1.234,   1.235e-4
1.236,   1.233e-4
1.238,   1.234e-4
1.240,   1.236e-4
1.242,   1.236e-4
1.244,   1.239e-4
1.246,   1.240e-4
1.248,   1.240e-4
1.250,   1.243e-4
1.252,   1.244e-4
1.254,   1.247e-4
1.256,   1.251e-4
1.258,   1.253e-4
1.260,   1.256e-4
1.262,   1.260e-4
1.264,   1.262e-4
1.266,   1.266e-4
1.268,   1.269e-4
1.270,   1.272e-4
1.272,   1.275e-4
1.274,   1.278e-4
1.276,   1.282e-4
1.278,   1.286e-4
1.280,   1.288e-4
1.282,   1.292e-4
1.284,   1.295e-4
1.286,   1.298e-4
1.288,   1.300e-4
1.290,   1.302e-4
1.292,   1.306e-4
1.294,   1.310e-4
1.296,   1.313e-4
1.298,   1.318e-4
1.300,   1.320e-4
1.302,   1.324e-4
1.304,   1.327e-4
1.306,   1.331e-4
1.308,   1.334e-4
1.310,   1.339e-4
1.312,   1.343e-4
1.314,   1.350e-4
1.316,   1.354e-4
1.318,   1.360e-4
1.320,   1.366e-4
1.322,   1.374e-4
1.324,   1.379e-4
1.326,   1.384e-4
1.328,   1.389e-4
1.330,   1.399e-4
1.332,   1.407e-4
1.334,   1.413e-4
1.336,   1.420e-4
1.338,   1.430e-4
1.340,   1.439e-4
1.342,   1.448e-4
1.344,   1.454e-4
1.346,   1.465e-4
1.348,   1.477e-4
1.350,   1.490e-4
1.352,   1.502e-4
1.354,   1.514e-4
1.356,   1.528e-4
1.358,   1.542e-4
1.360,   1.557e-4
1.362,   1.576e-4
1.364,   1.587e-4
1.366,   1.603e-4
1.368,   1.621e-4
1.370,   1.640e-4
1.372,   1.662e-4
1.374,   1.683e-4
1.376,   1.705e-4
1.378,   1.730e-4
1.380,   1.755e-4
1.382,   1.783e-4
1.384,   1.813e-4
1.386,   1.845e-4
1.388,   1.883e-4
1.390,   1.920e-4
1.392,   1.957e-4
1.394,   2.004e-4
1.396,   2.046e-4
1.398,   2.094e-4
1.400,   2.152e-4
1.402,   2.211e-4
1.404,   2.276e-4
1.406,   2.345e-4
1.408,   2.420e-4
1.410,   2.504e-4
1.412,   2.597e-4
1.414,   2.694e-4
1.416,   2.806e-4
1.418,   2.929e-4
1.420,   3.067e-4
1.422,   3.215e-4
1.424,   3.380e-4
1.426,   3.564e-4
1.428,   3.774e-4
1.430,   4.003e-4
1.432,   4.254e-4
1.434,   4.533e-4
1.436,   4.846e-4
1.438,   5.187e-4
1.440,   5.564e-4
1.442,   5.979e-4
1.444,   6.433e-4
1.446,   6.913e-4
1.448,   7.441e-4
1.450,   8.018e-4
1.452,   8.632e-4
1.454,   9.298e-4
1.456,   9.997e-4
1.458,   1.076e-3
1.460,   1.157e-3
1.462,   1.241e-3
1.464,   1.328e-3
1.466,   1.424e-3
1.468,   1.524e-3
1.470,   1.629e-3
1.472,   1.738e-3
1.474,   1.853e-3
1.476,   1.974e-3
1.478,   2.097e-3
1.480,   2.225e-3
1.482,   2.358e-3
1.484,   2.496e-3
1.486,   2.641e-3
1.488,   2.784e-3
1.490,   2.933e-3
1.492,   3.087e-3
1.494,   3.241e-3
1.496,   3.401e-3
1.498,   3.566e-3
1.500,   3.731e-3
1.502,   3.897e-3
1.504,   4.066e-3
1.506,   4.236e-3
1.508,   4.411e-3
1.510,   4.572e-3
1.512,   4.740e-3
1.514,   4.916e-3
1.516,   5.084e-3
1.518,   5.251e-3
1.520,   5.417e-3
1.522,   5.591e-3
1.524,   5.750e-3
1.526,   5.919e-3
1.528,   6.084e-3
1.530,   6.242e-3
1.532,   6.671e-3
1.534,   6.849e-3
1.536,   7.024e-3
1.538,   7.160e-3
1.540,   7.325e-3
1.542,   7.464e-3
1.544,   7.589e-3
1.546,   7.717e-3
1.548,   7.857e-3
1.550,   7.999e-3
1.552,   8.103e-3
1.554,   8.242e-3
1.556,   8.357e-3
1.558,   8.505e-3
1.560,   8.585e-3
1.562,   8.670e-3
1.564,   8.777e-3
1.566,   8.842e-3
1.568,   8.864e-3
1.570,   9.135e-3
1.572,   9.576e-3
1.574,   9.578e-3
1.576,   9.623e-3
1.578,   9.621e-3
1.580,   9.643e-3
1.582,   9.709e-3
1.584,   9.845e-3
1.586,   1.006e-2
1.588,   1.006e-2
1.590,   1.006e-2
1.592,   1.006e-2
1.593,   1.006e-2