File: Experimental Records and Raw Data/batch4/final500/B4_BEST_500_#3_Full-216mV.txt
Mar. 28, 2023   11:58:01
Linear Sweep Voltammetry
File: d:\current work\al_oer\electrochemical test data\batch 4\500\B4_BEST_500_#3_Full-216mV.txt
Data Source:  Experiment
Instrument Model:  CHI660E
Header:
Note:

Init E (V) = 1.099

Final E (V) = 1.698

Scan Rate (V/s) = 0.010
Sample Interval (V) = 0.001
Quiet Time (sec) = 2
Sensitivity (A/V) = 0.001
Comp R (ohm) = 5.0

Results:

Channel 1:
Ep = 1.343V
ip = 5.658e-3A
Ah = 8.901e-2C

Potential/V, Current/A
1.099,   5.251e-4
1.101,   4.507e-4
1.103,   3.895e-4
1.105,   3.428e-4
1.107,   3.039e-4
1.109,   2.736e-4
1.111,   2.478e-4
1.113,   2.255e-4
1.115,   2.074e-4
1.117,   1.916e-4
1.119,   1.784e-4
1.121,   1.675e-4
1.123,   1.574e-4
1.125,   1.490e-4
1.127,   1.412e-4
1.129,   1.348e-4
1.131,   1.290e-4
1.133,   1.238e-4
1.135,   1.193e-4
1.137,   1.155e-4
1.139,   1.118e-4
1.141,   1.086e-4
1.143,   1.055e-4
1.145,   1.028e-4
1.147,   1.004e-4
1.149,   9.848e-5
1.151,   9.617e-5
1.153,   9.460e-5
1.155,   9.295e-5
1.157,   9.140e-5
1.159,   9.011e-5
1.161,   8.896e-5
1.163,   8.775e-5
1.165,   8.695e-5
1.167,   8.606e-5
1.169,   8.540e-5
1.171,   8.493e-5
1.173,   8.415e-5
1.175,   8.348e-5
1.177,   8.323e-5
1.179,   8.243e-5
1.181,   8.208e-5
1.183,   8.164e-5
1.185,   8.152e-5
1.187,   8.124e-5
1.189,   8.119e-5
1.191,   8.113e-5
1.193,   8.089e-5
1.195,   8.083e-5
1.197,   8.080e-5
1.199,   8.078e-5
1.201,   8.062e-5
1.203,   8.066e-5
1.205,   8.060e-5
1.207,   8.075e-5
1.209,   8.067e-5
1.211,   8.068e-5
1.213,   8.098e-5
1.215,   8.105e-5
1.217,   8.115e-5
1.219,   8.114e-5
1.221,   8.130e-5
1.223,   8.143e-5
1.225,   8.166e-5
1.227,   8.181e-5
1.229,   8.216e-5
1.231,   8.227e-5
1.233,   8.239e-5
1.235,   8.264e-5
1.237,   8.293e-5
1.239,   8.330e-5
1.241,   8.329e-5
1.243,   8.328e-5
1.245,   8.350e-5
1.247,   8.369e-5
1.249,   8.376e-5
1.251,   8.415e-5
1.253,   8.433e-5
1.255,   8.455e-5
1.257,   8.467e-5
1.259,   8.486e-5
1.261,   8.528e-5
1.263,   8.552e-5
1.265,   8.574e-5
1.267,   8.613e-5
1.269,   8.657e-5
1.271,   8.678e-5
1.273,   8.702e-5
1.275,   8.733e-5
1.277,   8.753e-5
1.279,   8.768e-5
1.281,   8.788e-5
1.283,   8.837e-5
1.285,   8.906e-5
1.287,   8.939e-5
1.289,   8.967e-5
1.291,   9.014e-5
1.293,   9.077e-5
1.295,   9.121e-5
1.297,   9.164e-5
1.299,   9.201e-5
1.301,   9.270e-5
1.303,   9.330e-5
1.305,   9.380e-5
1.307,   9.416e-5
1.309,   9.504e-5
1.311,   9.554e-5
1.313,   9.628e-5
1.315,   9.708e-5
1.317,   9.795e-5
1.319,   9.887e-5
1.321,   9.971e-5
1.323,   1.005e-4
1.325,   1.019e-4
1.327,   1.027e-4
1.329,   1.037e-4
1.331,   1.049e-4
1.333,   1.063e-4
1.335,   1.077e-4
1.337,   1.091e-4
1.339,   1.104e-4
1.341,   1.121e-4
1.343,   1.139e-4
1.345,   1.158e-4
1.347,   1.177e-4
1.349,   1.199e-4
1.351,   1.223e-4
1.353,   1.248e-4
1.355,   1.273e-4
1.357,   1.304e-4
1.359,   1.337e-4
1.361,   1.370e-4
1.363,   1.409e-4
1.365,   1.452e-4
1.367,   1.499e-4
1.369,   1.550e-4
1.371,   1.603e-4
1.373,   1.665e-4
1.375,   1.731e-4
1.377,   1.805e-4
1.379,   1.884e-4
1.381,   1.976e-4
1.383,   2.077e-4
1.385,   2.191e-4
1.387,   2.318e-4
1.389,   2.458e-4
1.391,   2.612e-4
1.393,   2.786e-4
1.395,   2.980e-4
1.397,   3.199e-4
1.399,   3.441e-4
1.401,   3.700e-4
1.403,   3.992e-4
1.405,   4.308e-4
1.407,   4.658e-4
1.409,   5.040e-4
1.411,   5.457e-4
1.413,   5.913e-4
1.415,   6.397e-4
1.417,   6.919e-4
1.419,   7.477e-4
1.421,   8.089e-4
1.423,   8.730e-4
1.425,   9.411e-4
1.427,   1.014e-3
1.429,   1.090e-3
1.431,   1.172e-3
1.433,   1.257e-3
1.435,   1.348e-3
1.437,   1.439e-3
1.439,   1.534e-3
1.441,   1.637e-3
1.443,   1.742e-3
1.445,   1.851e-3
1.447,   1.959e-3
1.449,   2.076e-3
1.451,   2.191e-3
1.453,   2.310e-3
1.455,   2.429e-3
1.457,   2.551e-3
1.459,   2.679e-3
1.461,   2.806e-3
1.463,   2.933e-3
1.465,   3.063e-3
1.467,   3.192e-3
1.469,   3.322e-3
1.471,   3.445e-3
1.473,   3.570e-3
1.475,   3.683e-3
1.477,   3.806e-3
1.479,   3.933e-3
1.481,   4.052e-3
1.483,   4.159e-3
1.485,   4.274e-3
1.487,   4.377e-3
1.489,   4.484e-3
1.491,   4.573e-3
1.493,   4.657e-3
1.495,   4.751e-3
1.497,   4.823e-3
1.499,   4.899e-3
1.501,   4.977e-3
1.503,   5.042e-3
1.505,   5.108e-3
1.507,   5.172e-3
1.509,   5.224e-3
1.511,   5.280e-3
1.513,   5.361e-3
1.515,   5.414e-3
1.517,   5.458e-3
1.519,   5.490e-3
1.521,   5.513e-3
1.523,   5.549e-3
1.525,   5.566e-3
1.527,   5.606e-3
1.529,   5.645e-3
1.531,   5.653e-3
1.533,   5.677e-3
1.535,   5.682e-3
1.537,   5.741e-3
1.539,   5.782e-3
1.541,   5.820e-3
1.543,   5.813e-3
1.545,   5.816e-3
1.547,   5.816e-3
1.549,   5.790e-3
1.551,   5.773e-3
1.553,   5.771e-3
1.555,   5.746e-3
1.557,   5.795e-3
1.559,   5.795e-3
1.561,   5.777e-3
1.563,   5.755e-3
1.565,   5.748e-3
1.567,   5.734e-3
1.569,   5.723e-3
1.571,   5.681e-3
1.573,   5.682e-3
1.575,   5.653e-3
1.577,   5.644e-3
1.579,   5.619e-3
1.581,   5.610e-3
1.583,   5.608e-3
1.585,   5.578e-3
1.587,   5.590e-3
1.589,   5.598e-3
1.591,   5.574e-3
1.593,   5.530e-3
1.595,   5.483e-3
1.597,   5.478e-3
1.599,   5.462e-3
1.601,   5.435e-3
1.603,   5.412e-3
1.605,   5.403e-3
1.607,   5.377e-3
1.609,   5.349e-3
1.611,   5.331e-3
1.613,   5.279e-3
1.615,   5.254e-3
1.617,   5.220e-3
1.619,   5.206e-3
1.621,   5.189e-3
1.623,   5.170e-3
1.625,   5.149e-3
1.627,   5.131e-3
1.629,   5.100e-3
1.631,   5.062e-3
1.633,   5.048e-3
1.635,   5.015e-3
1.637,   4.994e-3
1.639,   4.969e-3
1.641,   4.930e-3
1.643,   4.911e-3
1.645,   4.864e-3
1.647,   4.860e-3
1.649,   4.809e-3
1.651,   4.807e-3
1.653,   4.804e-3
1.655,   4.770e-3
1.657,   4.755e-3
1.659,   4.731e-3
1.661,   4.691e-3
1.663,   4.646e-3
1.665,   4.617e-3
1.667,   4.576e-3
1.669,   4.532e-3
1.671,   4.517e-3
1.673,   4.495e-3
1.675,   4.438e-3
1.677,   4.435e-3
1.679,   4.392e-3
1.681,   4.356e-3
1.683,   4.326e-3
1.685,   4.297e-3
1.687,   4.271e-3
1.689,   4.242e-3
1.691,   4.227e-3
1.693,   4.198e-3
1.695,   4.169e-3
1.697,   4.143e-3
1.698,   4.125e-3