File: Experimental Records and Raw Data/batch4/final500/B4_BEST_500_#7_Full-255mV.txt
Mar. 28, 2023   12:40:44
Linear Sweep Voltammetry
File: d:\current work\al_oer\electrochemical test data\batch 4\500\B4_BEST_500_#7_Full-255mV.txt
Data Source:  Experiment
Instrument Model:  CHI660E
Header:
Note:

Init E (V) = 1.098

Final E (V) = 1.535

Scan Rate (V/s) = 0.010
Sample Interval (V) = 0.001
Quiet Time (sec) = 2
Sensitivity (A/V) = 0.001
Comp R (ohm) = 5.5

Results:

Channel 1:

Potential/V, Current/A
1.098,   1.836e-4
1.100,   1.621e-4
1.102,   1.443e-4
1.104,   1.299e-4
1.106,   1.183e-4
1.108,   1.084e-4
1.110,   1.004e-4
1.112,   9.373e-5
1.114,   8.795e-5
1.116,   8.291e-5
1.118,   7.851e-5
1.120,   7.467e-5
1.122,   7.126e-5
1.124,   6.831e-5
1.126,   6.574e-5
1.128,   6.330e-5
1.130,   6.117e-5
1.132,   5.935e-5
1.134,   5.764e-5
1.136,   5.619e-5
1.138,   5.481e-5
1.140,   5.358e-5
1.142,   5.247e-5
1.144,   5.141e-5
1.146,   5.053e-5
1.148,   4.969e-5
1.150,   4.887e-5
1.152,   4.820e-5
1.154,   4.757e-5
1.156,   4.704e-5
1.158,   4.656e-5
1.160,   4.601e-5
1.162,   4.557e-5
1.164,   4.517e-5
1.166,   4.473e-5
1.168,   4.447e-5
1.170,   4.414e-5
1.172,   4.392e-5
1.174,   4.371e-5
1.176,   4.343e-5
1.178,   4.329e-5
1.180,   4.319e-5
1.182,   4.310e-5
1.184,   4.300e-5
1.186,   4.289e-5
1.188,   4.280e-5
1.190,   4.277e-5
1.192,   4.270e-5
1.194,   4.263e-5
1.196,   4.268e-5
1.198,   4.270e-5
1.200,   4.271e-5
1.202,   4.271e-5
1.204,   4.273e-5
1.206,   4.292e-5
1.208,   4.297e-5
1.210,   4.299e-5
1.212,   4.309e-5
1.214,   4.314e-5
1.216,   4.323e-5
1.218,   4.327e-5
1.220,   4.339e-5
1.222,   4.347e-5
1.224,   4.360e-5
1.226,   4.371e-5
1.228,   4.384e-5
1.230,   4.396e-5
1.232,   4.408e-5
1.234,   4.425e-5
1.236,   4.437e-5
1.238,   4.450e-5
1.240,   4.463e-5
1.242,   4.478e-5
1.244,   4.498e-5
1.246,   4.512e-5
1.248,   4.521e-5
1.250,   4.536e-5
1.252,   4.550e-5
1.254,   4.561e-5
1.256,   4.577e-5
1.258,   4.596e-5
1.260,   4.611e-5
1.262,   4.626e-5
1.264,   4.640e-5
1.266,   4.658e-5
1.268,   4.684e-5
1.270,   4.703e-5
1.272,   4.723e-5
1.274,   4.748e-5
1.276,   4.773e-5
1.278,   4.789e-5
1.280,   4.807e-5
1.282,   4.826e-5
1.284,   4.856e-5
1.286,   4.882e-5
1.288,   4.905e-5
1.290,   4.932e-5
1.292,   4.969e-5
1.294,   4.992e-5
1.296,   5.013e-5
1.298,   5.040e-5
1.300,   5.072e-5
1.302,   5.123e-5
1.304,   5.151e-5
1.306,   5.186e-5
1.308,   5.226e-5
1.310,   5.286e-5
1.312,   5.325e-5
1.314,   5.382e-5
1.316,   5.425e-5
1.318,   5.470e-5
1.320,   5.518e-5
1.322,   5.566e-5
1.324,   5.623e-5
1.326,   5.664e-5
1.328,   5.721e-5
1.330,   5.787e-5
1.332,   5.857e-5
1.334,   5.940e-5
1.336,   6.003e-5
1.338,   6.070e-5
1.340,   6.152e-5
1.342,   6.230e-5
1.344,   6.314e-5
1.346,   6.410e-5
1.348,   6.507e-5
1.350,   6.605e-5
1.352,   6.703e-5
1.354,   6.822e-5
1.356,   6.951e-5
1.358,   7.080e-5
1.360,   7.211e-5
1.362,   7.354e-5
1.364,   7.498e-5
1.366,   7.669e-5
1.368,   7.866e-5
1.370,   8.060e-5
1.372,   8.320e-5
1.374,   8.504e-5
1.376,   8.760e-5
1.378,   9.000e-5
1.380,   9.298e-5
1.382,   9.621e-5
1.384,   9.991e-5
1.386,   1.039e-4
1.388,   1.084e-4
1.390,   1.131e-4
1.392,   1.186e-4
1.394,   1.247e-4
1.396,   1.314e-4
1.398,   1.390e-4
1.400,   1.473e-4
1.402,   1.565e-4
1.404,   1.669e-4
1.406,   1.779e-4
1.408,   1.901e-4
1.410,   2.038e-4
1.412,   2.185e-4
1.414,   2.342e-4
1.416,   2.515e-4
1.418,   2.702e-4
1.420,   2.907e-4
1.422,   3.125e-4
1.424,   3.361e-4
1.426,   3.613e-4
1.428,   3.886e-4
1.430,   4.179e-4
1.432,   4.484e-4
1.434,   4.811e-4
1.436,   5.157e-4
1.438,   5.522e-4
1.440,   5.912e-4
1.442,   6.322e-4
1.444,   6.750e-4
1.446,   7.197e-4
1.448,   7.665e-4
1.450,   8.155e-4
1.452,   8.665e-4
1.454,   9.199e-4
1.456,   9.743e-4
1.458,   1.031e-3
1.460,   1.090e-3
1.462,   1.150e-3
1.464,   1.212e-3
1.466,   1.274e-3
1.468,   1.339e-3
1.470,   1.404e-3
1.472,   1.471e-3
1.474,   1.539e-3
1.476,   1.607e-3
1.478,   1.676e-3
1.480,   1.745e-3
1.482,   1.813e-3
1.484,   1.881e-3
1.486,   1.950e-3
1.488,   2.018e-3
1.490,   2.086e-3
1.492,   2.152e-3
1.494,   2.218e-3
1.496,   2.284e-3
1.498,   2.348e-3
1.500,   2.412e-3
1.502,   2.477e-3
1.504,   2.541e-3
1.506,   2.600e-3
1.508,   2.660e-3
1.510,   2.712e-3
1.512,   2.768e-3
1.514,   2.823e-3
1.516,   2.876e-3
1.518,   2.929e-3
1.520,   2.976e-3
1.522,   3.022e-3
1.524,   3.066e-3
1.526,   3.111e-3
1.528,   3.158e-3
1.530,   3.202e-3
1.532,   3.245e-3
1.534,   3.287e-3
1.535,   3.304e-3