File: Experimental Records and Raw Data/batch4/final500/B4_BEST_500_#4_Full-199mV.txt
Mar. 29, 2023   11:35:05
Linear Sweep Voltammetry
File: d:\current work\al_oer\electrochemical test data\batch 4\500\B4_BEST_500_#4_Full-199mV.txt
Data Source:  Experiment
Instrument Model:  CHI660E
Header:
Note:

Init E (V) = 1.099

Final E (V) = 1.672

Scan Rate (V/s) = 0.010
Sample Interval (V) = 0.001
Quiet Time (sec) = 2
Sensitivity (A/V) = 0.001
Comp R (ohm) = 5.0

Results:

Channel 1:
Ep = 1.263V
ip = 9.902e-3A
Ah = 3.711e-2C

Potential/V, Current/A
1.099,   1.697e-4
1.101,   1.982e-4
1.103,   1.839e-4
1.105,   1.732e-4
1.107,   1.660e-4
1.109,   1.597e-4
1.111,   1.548e-4
1.113,   1.508e-4
1.115,   1.475e-4
1.117,   1.454e-4
1.119,   1.439e-4
1.121,   1.414e-4
1.123,   1.402e-4
1.125,   1.396e-4
1.127,   1.385e-4
1.129,   1.378e-4
1.131,   1.372e-4
1.133,   1.378e-4
1.135,   1.372e-4
1.137,   1.367e-4
1.139,   1.373e-4
1.141,   1.378e-4
1.143,   1.378e-4
1.145,   1.383e-4
1.147,   1.383e-4
1.149,   1.395e-4
1.151,   1.398e-4
1.153,   1.400e-4
1.155,   1.406e-4
1.157,   1.420e-4
1.159,   1.425e-4
1.161,   1.431e-4
1.163,   1.437e-4
1.165,   1.454e-4
1.167,   1.459e-4
1.169,   1.464e-4
1.171,   1.480e-4
1.173,   1.490e-4
1.175,   1.496e-4
1.177,   1.505e-4
1.179,   1.515e-4
1.181,   1.526e-4
1.183,   1.541e-4
1.185,   1.541e-4
1.187,   1.553e-4
1.189,   1.567e-4
1.191,   1.573e-4
1.193,   1.579e-4
1.195,   1.586e-4
1.197,   1.604e-4
1.199,   1.607e-4
1.201,   1.609e-4
1.203,   1.619e-4
1.205,   1.630e-4
1.207,   1.634e-4
1.209,   1.641e-4
1.211,   1.640e-4
1.213,   1.651e-4
1.215,   1.655e-4
1.217,   1.652e-4
1.219,   1.654e-4
1.221,   1.664e-4
1.223,   1.666e-4
1.225,   1.663e-4
1.227,   1.664e-4
1.229,   1.674e-4
1.231,   1.669e-4
1.233,   1.662e-4
1.235,   1.669e-4
1.237,   1.668e-4
1.239,   1.664e-4
1.241,   1.660e-4
1.243,   1.653e-4
1.245,   1.660e-4
1.247,   1.656e-4
1.249,   1.647e-4
1.251,   1.645e-4
1.253,   1.647e-4
1.255,   1.641e-4
1.257,   1.632e-4
1.259,   1.628e-4
1.261,   1.638e-4
1.263,   1.626e-4
1.265,   1.616e-4
1.267,   1.617e-4
1.269,   1.615e-4
1.271,   1.608e-4
1.273,   1.608e-4
1.275,   1.596e-4
1.277,   1.601e-4
1.279,   1.595e-4
1.281,   1.585e-4
1.283,   1.583e-4
1.285,   1.588e-4
1.287,   1.582e-4
1.289,   1.578e-4
1.291,   1.572e-4
1.293,   1.580e-4
1.295,   1.576e-4
1.297,   1.570e-4
1.299,   1.574e-4
1.301,   1.574e-4
1.303,   1.574e-4
1.305,   1.572e-4
1.307,   1.570e-4
1.309,   1.577e-4
1.311,   1.580e-4
1.313,   1.573e-4
1.315,   1.577e-4
1.317,   1.586e-4
1.319,   1.586e-4
1.321,   1.583e-4
1.323,   1.589e-4
1.325,   1.606e-4
1.327,   1.603e-4
1.329,   1.601e-4
1.331,   1.613e-4
1.333,   1.625e-4
1.335,   1.626e-4
1.337,   1.639e-4
1.339,   1.642e-4
1.341,   1.659e-4
1.343,   1.669e-4
1.345,   1.675e-4
1.347,   1.690e-4
1.349,   1.710e-4
1.351,   1.724e-4
1.353,   1.737e-4
1.355,   1.753e-4
1.357,   1.784e-4
1.359,   1.804e-4
1.361,   1.827e-4
1.363,   1.859e-4
1.365,   1.896e-4
1.367,   1.929e-4
1.369,   1.965e-4
1.371,   2.012e-4
1.373,   2.070e-4
1.375,   2.134e-4
1.377,   2.193e-4
1.379,   2.271e-4
1.381,   2.367e-4
1.383,   2.464e-4
1.385,   2.577e-4
1.387,   2.705e-4
1.389,   2.873e-4
1.391,   3.042e-4
1.393,   3.231e-4
1.395,   3.468e-4
1.397,   3.737e-4
1.399,   4.032e-4
1.401,   4.372e-4
1.403,   4.786e-4
1.405,   5.207e-4
1.407,   5.766e-4
1.409,   6.314e-4
1.411,   6.938e-4
1.413,   7.692e-4
1.415,   8.533e-4
1.417,   9.472e-4
1.419,   1.058e-3
1.421,   1.189e-3
1.423,   1.313e-3
1.425,   1.472e-3
1.427,   1.635e-3
1.429,   1.835e-3
1.431,   2.042e-3
1.433,   2.274e-3
1.435,   2.541e-3
1.437,   2.838e-3
1.439,   3.167e-3
1.441,   3.533e-3
1.443,   3.943e-3
1.445,   4.397e-3
1.447,   4.907e-3
1.449,   5.478e-3
1.451,   6.107e-3
1.453,   6.815e-3
1.455,   7.599e-3
1.457,   8.465e-3
1.459,   9.417e-3
1.461,   1.006e-2
1.463,   1.006e-2
1.465,   1.006e-2
1.467,   1.006e-2
1.469,   1.006e-2
1.471,   1.006e-2
1.473,   1.006e-2
1.475,   1.006e-2
1.477,   1.006e-2
1.479,   1.006e-2
1.481,   1.006e-2
1.483,   1.006e-2
1.485,   1.006e-2
1.487,   1.006e-2
1.489,   1.006e-2
1.491,   1.006e-2
1.493,   1.006e-2
1.495,   1.006e-2
1.497,   1.006e-2
1.499,   1.006e-2
1.501,   1.006e-2
1.503,   1.006e-2
1.505,   1.006e-2
1.507,   1.006e-2
1.509,   1.006e-2
1.511,   1.006e-2
1.513,   1.006e-2
1.515,   1.006e-2
1.517,   1.006e-2
1.519,   1.006e-2
1.521,   1.006e-2
1.523,   1.006e-2
1.525,   1.006e-2
1.527,   1.006e-2
1.529,   1.006e-2
1.531,   1.006e-2
1.533,   1.006e-2
1.535,   1.006e-2
1.537,   1.006e-2
1.539,   1.006e-2
1.541,   1.006e-2
1.543,   1.006e-2
1.545,   1.006e-2
1.547,   1.006e-2
1.549,   1.006e-2
1.551,   1.006e-2
1.553,   1.006e-2
1.555,   1.006e-2
1.557,   1.006e-2
1.559,   1.006e-2
1.561,   1.006e-2
1.563,   1.006e-2
1.565,   1.006e-2
1.567,   1.006e-2
1.569,   1.006e-2
1.571,   1.006e-2
1.573,   1.006e-2
1.575,   1.006e-2
1.577,   1.006e-2
1.579,   1.006e-2
1.581,   1.006e-2
1.583,   1.006e-2
1.585,   1.006e-2
1.587,   1.006e-2
1.589,   1.006e-2
1.591,   1.006e-2
1.593,   1.006e-2
1.595,   1.006e-2
1.597,   1.006e-2
1.599,   1.006e-2
1.601,   1.006e-2
1.603,   1.006e-2
1.605,   1.006e-2
1.607,   1.006e-2
1.609,   1.006e-2
1.611,   1.006e-2
1.613,   1.006e-2
1.615,   1.006e-2
1.617,   1.006e-2
1.619,   1.006e-2
1.621,   1.006e-2
1.623,   1.006e-2
1.625,   1.006e-2
1.627,   1.006e-2
1.629,   1.006e-2
1.631,   1.006e-2
1.633,   1.006e-2
1.635,   1.006e-2
1.637,   1.006e-2
1.639,   1.006e-2
1.641,   1.006e-2
1.643,   1.006e-2
1.645,   1.006e-2
1.647,   1.006e-2
1.649,   1.006e-2
1.651,   1.006e-2
1.653,   1.006e-2
1.655,   1.006e-2
1.657,   1.006e-2
1.659,   1.006e-2
1.661,   1.006e-2
1.663,   1.006e-2
1.665,   1.006e-2
1.667,   1.006e-2
1.669,   1.006e-2
1.671,   1.006e-2
1.672,   1.006e-2