File: Experimental Records and Raw Data/batch4/final500/B4_BEST_500_#7_High_Quality(#23)-196mV.txt
Mar. 29, 2023   12:49:14
Linear Sweep Voltammetry
File: d:\current work\al_oer\electrochemical test data\batch 4\500\B4_BEST_500_#7_High_Quality(#23)-196mV.txt
Data Source:  Experiment
Instrument Model:  CHI660E
Header:
Note:

Init E (V) = 1.098

Final E (V) = 1.540

Scan Rate (V/s) = 0.010
Sample Interval (V) = 0.001
Quiet Time (sec) = 2
Sensitivity (A/V) = 0.001
Comp R (ohm) = 5.4

Results:

Channel 1:

Potential/V, Current/A
1.098,   9.864E-04
1.1,   8.245E-04
1.102,   7.049E-04
1.104,   6.160E-04
1.106,   5.482E-04
1.108,   4.963E-04
1.11,   4.547E-04
1.112,   4.207E-04
1.114,   3.924E-04
1.116,   3.699E-04
1.118,   3.500E-04
1.12,   3.332E-04
1.122,   3.186E-04
1.124,   3.062E-04
1.126,   2.958E-04
1.128,   2.864E-04
1.13,   2.782E-04
1.132,   2.713E-04
1.134,   2.647E-04
1.136,   2.589E-04
1.138,   2.540E-04
1.14,   2.496E-04
1.142,   2.458E-04
1.144,   2.425E-04
1.146,   2.391E-04
1.148,   2.362E-04
1.15,   2.339E-04
1.152,   2.317E-04
1.154,   2.297E-04
1.156,   2.281E-04
1.158,   2.265E-04
1.16,   2.251E-04
1.162,   2.237E-04
1.164,   2.232E-04
1.166,   2.223E-04
1.168,   2.215E-04
1.17,   2.208E-04
1.172,   2.204E-04
1.174,   2.201E-04
1.176,   2.197E-04
1.178,   2.194E-04
1.18,   2.195E-04
1.182,   2.194E-04
1.184,   2.195E-04
1.186,   2.195E-04
1.188,   2.198E-04
1.19,   2.202E-04
1.192,   2.206E-04
1.194,   2.206E-04
1.196,   2.213E-04
1.198,   2.219E-04
1.2,   2.223E-04
1.202,   2.232E-04
1.204,   2.236E-04
1.206,   2.244E-04
1.208,   2.254E-04
1.21,   2.262E-04
1.212,   2.269E-04
1.214,   2.281E-04
1.216,   2.288E-04
1.218,   2.299E-04
1.22,   2.309E-04
1.222,   2.320E-04
1.224,   2.330E-04
1.226,   2.341E-04
1.228,   2.356E-04
1.23,   2.366E-04
1.232,   2.377E-04
1.234,   2.393E-04
1.236,   2.405E-04
1.238,   2.422E-04
1.24,   2.433E-04
1.242,   2.447E-04
1.244,   2.463E-04
1.246,   2.478E-04
1.248,   2.495E-04
1.25,   2.512E-04
1.252,   2.527E-04
1.254,   2.545E-04
1.256,   2.563E-04
1.258,   2.580E-04
1.26,   2.603E-04
1.262,   2.619E-04
1.264,   2.639E-04
1.266,   2.659E-04
1.268,   2.682E-04
1.27,   2.705E-04
1.272,   2.726E-04
1.274,   2.748E-04
1.276,   2.775E-04
1.278,   2.799E-04
1.28,   2.827E-04
1.282,   2.852E-04
1.284,   2.883E-04
1.286,   2.915E-04
1.288,   2.943E-04
1.29,   2.976E-04
1.292,   3.011E-04
1.294,   3.046E-04
1.296,   3.081E-04
1.298,   3.125E-04
1.3,   3.163E-04
1.302,   3.205E-04
1.304,   3.248E-04
1.306,   3.297E-04
1.308,   3.349E-04
1.31,   3.402E-04
1.312,   3.465E-04
1.314,   3.528E-04
1.316,   3.594E-04
1.318,   3.667E-04
1.32,   3.741E-04
1.322,   3.825E-04
1.324,   3.920E-04
1.326,   4.014E-04
1.328,   4.117E-04
1.33,   4.225E-04
1.332,   4.332E-04
1.334,   4.451E-04
1.336,   4.574E-04
1.338,   4.697E-04
1.34,   4.826E-04
1.342,   4.962E-04
1.344,   5.093E-04
1.346,   5.225E-04
1.348,   5.366E-04
1.35,   5.509E-04
1.352,   5.648E-04
1.354,   5.782E-04
1.356,   5.925E-04
1.358,   6.059E-04
1.36,   6.192E-04
1.362,   6.331E-04
1.364,   6.458E-04
1.366,   6.586E-04
1.368,   6.719E-04
1.37,   6.853E-04
1.372,   6.993E-04
1.374,   7.140E-04
1.376,   7.290E-04
1.378,   7.449E-04
1.38,   7.623E-04
1.382,   7.812E-04
1.384,   8.008E-04
1.386,   8.257E-04
1.388,   8.540E-04
1.39,   8.844E-04
1.392,   9.166E-04
1.394,   9.485E-04
1.396,   9.883E-04
1.398,   1.036E-03
1.4,   1.079E-03
1.402,   1.134E-03
1.404,   1.190E-03
1.406,   1.248E-03
1.408,   1.313E-03
1.41,   1.388E-03
1.412,   1.462E-03
1.414,   1.546E-03
1.416,   1.635E-03
1.418,   1.718E-03
1.42,   1.800E-03
1.422,   1.875E-03
1.424,   1.925E-03
1.426,   1.954E-03
1.428,   1.963E-03
1.43,   1.931E-03
1.432,   1.866E-03
1.434,   1.795E-03
1.436,   1.688E-03
1.438,   1.581E-03
1.44,   1.464E-03
1.442,   1.349E-03
1.444,   1.236E-03
1.446,   1.136E-03
1.448,   1.031E-03
1.45,   9.345E-04
1.452,   8.569E-04
1.454,   7.830E-04
1.456,   7.230E-04
1.458,   6.699E-04
1.46,   6.217E-04
1.462,   5.760E-04
1.464,   5.330E-04
1.466,   5.022E-04
1.468,   4.747E-04
1.47,   4.491E-04
1.472,   4.256E-04
1.474,   4.024E-04
1.476,   3.812E-04
1.478,   3.625E-04
1.48,   3.473E-04
1.482,   3.329E-04
1.484,   3.237E-04
1.486,   3.143E-04
1.488,   3.046E-04
1.49,   2.967E-04
1.492,   2.884E-04
1.494,   2.797E-04
1.496,   2.722E-04
1.498,   2.640E-04
1.5,   2.580E-04
1.502,   2.509E-04
1.504,   2.451E-04
1.506,   2.400E-04
1.508,   2.352E-04
1.51,   2.307E-04
1.512,   2.272E-04
1.514,   2.241E-04
1.516,   2.209E-04
1.518,   2.164E-04
1.52,   2.120E-04
1.522,   2.099E-04
1.524,   2.071E-04
1.526,   2.045E-04
1.528,   2.015E-04
1.53,   1.978E-04
1.532,   1.942E-04
1.534,   1.917E-04
1.536,   1.883E-04
1.538,   1.868E-04
1.54,   1.833E-04