File: Experimental Records and Raw Data/batch4/final500/B4_BEST_500_#3_High_Quality(#19)-176mV.txt
Mar. 28, 2023   13:37:33
Linear Sweep Voltammetry
File: d:\current work\al_oer\electrochemical test data\batch 4\500\B4_BEST_500_#3_High_Quality(#19)-176mV.txt
Data Source:  Experiment
Instrument Model:  CHI660E
Header:
Note:

Init E (V) = 1.098

Final E (V) = 1.498

Scan Rate (V/s) = 0.010
Sample Interval (V) = 0.001
Quiet Time (sec) = 2
Sensitivity (A/V) = 0.001
Comp R (ohm) = 6.3

Results:

Channel 1:

Potential/V, Current/A
1.098,   1.258e-3
1.100,   8.524e-4
1.102,   6.179e-4
1.104,   4.779e-4
1.106,   3.904e-4
1.108,   3.331e-4
1.110,   2.932e-4
1.112,   2.646e-4
1.114,   2.431e-4
1.116,   2.270e-4
1.118,   2.147e-4
1.120,   2.051e-4
1.122,   1.969e-4
1.124,   1.907e-4
1.126,   1.857e-4
1.128,   1.814e-4
1.130,   1.777e-4
1.132,   1.753e-4
1.134,   1.728e-4
1.136,   1.707e-4
1.138,   1.690e-4
1.140,   1.678e-4
1.142,   1.667e-4
1.144,   1.659e-4
1.146,   1.650e-4
1.148,   1.643e-4
1.150,   1.638e-4
1.152,   1.634e-4
1.154,   1.631e-4
1.156,   1.627e-4
1.158,   1.629e-4
1.160,   1.625e-4
1.162,   1.621e-4
1.164,   1.624e-4
1.166,   1.623e-4
1.168,   1.622e-4
1.170,   1.624e-4
1.172,   1.623e-4
1.174,   1.625e-4
1.176,   1.626e-4
1.178,   1.626e-4
1.180,   1.629e-4
1.182,   1.631e-4
1.184,   1.633e-4
1.186,   1.634e-4
1.188,   1.635e-4
1.190,   1.641e-4
1.192,   1.642e-4
1.194,   1.643e-4
1.196,   1.651e-4
1.198,   1.652e-4
1.200,   1.651e-4
1.202,   1.657e-4
1.204,   1.658e-4
1.206,   1.663e-4
1.208,   1.668e-4
1.210,   1.669e-4
1.212,   1.673e-4
1.214,   1.679e-4
1.216,   1.680e-4
1.218,   1.683e-4
1.220,   1.687e-4
1.222,   1.695e-4
1.224,   1.696e-4
1.226,   1.698e-4
1.228,   1.706e-4
1.230,   1.711e-4
1.232,   1.714e-4
1.234,   1.720e-4
1.236,   1.722e-4
1.238,   1.730e-4
1.240,   1.732e-4
1.242,   1.735e-4
1.244,   1.745e-4
1.246,   1.747e-4
1.248,   1.751e-4
1.250,   1.756e-4
1.252,   1.762e-4
1.254,   1.770e-4
1.256,   1.773e-4
1.258,   1.777e-4
1.260,   1.788e-4
1.262,   1.793e-4
1.264,   1.797e-4
1.266,   1.803e-4
1.268,   1.810e-4
1.270,   1.819e-4
1.272,   1.828e-4
1.274,   1.830e-4
1.276,   1.843e-4
1.278,   1.850e-4
1.280,   1.856e-4
1.282,   1.862e-4
1.284,   1.874e-4
1.286,   1.887e-4
1.288,   1.894e-4
1.290,   1.901e-4
1.292,   1.915e-4
1.294,   1.928e-4
1.296,   1.936e-4
1.298,   1.950e-4
1.300,   1.963e-4
1.302,   1.979e-4
1.304,   1.991e-4
1.306,   2.004e-4
1.308,   2.025e-4
1.310,   2.043e-4
1.312,   2.059e-4
1.314,   2.079e-4
1.316,   2.102e-4
1.318,   2.125e-4
1.320,   2.149e-4
1.322,   2.173e-4
1.324,   2.215e-4
1.326,   2.239e-4
1.328,   2.272e-4
1.330,   2.309e-4
1.332,   2.350e-4
1.334,   2.395e-4
1.336,   2.444e-4
1.338,   2.493e-4
1.340,   2.555e-4
1.342,   2.618e-4
1.344,   2.683e-4
1.346,   2.757e-4
1.348,   2.841e-4
1.350,   2.934e-4
1.352,   3.028e-4
1.354,   3.134e-4
1.356,   3.257e-4
1.358,   3.380e-4
1.360,   3.516e-4
1.362,   3.673e-4
1.364,   3.839e-4
1.366,   4.023e-4
1.368,   4.226e-4
1.370,   4.446e-4
1.372,   4.703e-4
1.374,   4.986e-4
1.376,   5.298e-4
1.378,   5.649e-4
1.380,   6.047e-4
1.382,   6.498e-4
1.384,   6.999e-4
1.386,   7.568e-4
1.388,   8.221e-4
1.390,   8.944e-4
1.392,   9.759e-4
1.394,   1.068e-3
1.396,   1.170e-3
1.398,   1.286e-3
1.400,   1.413e-3
1.402,   1.553e-3
1.404,   1.707e-3
1.406,   1.876e-3
1.408,   2.058e-3
1.410,   2.255e-3
1.412,   2.466e-3
1.414,   2.693e-3
1.416,   2.929e-3
1.418,   3.177e-3
1.420,   3.434e-3
1.422,   3.694e-3
1.424,   3.964e-3
1.426,   4.236e-3
1.428,   4.509e-3
1.430,   4.778e-3
1.432,   5.042e-3
1.434,   5.298e-3
1.436,   5.542e-3
1.438,   5.775e-3
1.440,   5.993e-3
1.442,   6.201e-3
1.444,   6.389e-3
1.446,   6.557e-3
1.448,   6.710e-3
1.450,   6.845e-3
1.452,   6.978e-3
1.454,   7.097e-3
1.456,   7.218e-3
1.458,   7.425e-3
1.460,   7.487e-3
1.462,   7.542e-3
1.464,   7.585e-3
1.466,   7.634e-3
1.468,   7.670e-3
1.470,   7.690e-3
1.472,   7.710e-3
1.474,   7.731e-3
1.476,   7.742e-3
1.478,   7.753e-3
1.480,   7.756e-3
1.482,   7.750e-3
1.484,   7.744e-3
1.486,   7.732e-3
1.488,   7.863e-3
1.490,   7.817e-3
1.492,   7.793e-3
1.494,   7.777e-3
1.496,   7.745e-3
1.498,   7.721e-3