File: Experimental Records and Raw Data/batch4/final500/B4_BEST_500_#8_Full-226mV.txt
Mar. 28, 2023   12:44:16
Linear Sweep Voltammetry
File: d:\current work\al_oer\electrochemical test data\batch 4\500\B4_BEST_500_#8_Full-226mV.txt
Data Source:  Experiment
Instrument Model:  CHI660E
Header:
Note:

Init E (V) = 1.098

Final E (V) = 1.518

Scan Rate (V/s) = 0.010
Sample Interval (V) = 0.001
Quiet Time (sec) = 2
Sensitivity (A/V) = 0.001
Comp R (ohm) = 5.5

Results:

Channel 1:

Potential/V, Current/A
1.098,   2.282e-4
1.100,   2.024e-4
1.102,   1.799e-4
1.104,   1.618e-4
1.106,   1.472e-4
1.108,   1.355e-4
1.110,   1.257e-4
1.112,   1.173e-4
1.114,   1.103e-4
1.116,   1.043e-4
1.118,   9.898e-5
1.120,   9.448e-5
1.122,   9.054e-5
1.124,   8.704e-5
1.126,   8.393e-5
1.128,   8.113e-5
1.130,   7.860e-5
1.132,   7.649e-5
1.134,   7.439e-5
1.136,   7.255e-5
1.138,   7.100e-5
1.140,   6.952e-5
1.142,   6.819e-5
1.144,   6.707e-5
1.146,   6.595e-5
1.148,   6.500e-5
1.150,   6.411e-5
1.152,   6.330e-5
1.154,   6.259e-5
1.156,   6.200e-5
1.158,   6.143e-5
1.160,   6.088e-5
1.162,   6.030e-5
1.164,   5.995e-5
1.166,   5.964e-5
1.168,   5.924e-5
1.170,   5.897e-5
1.172,   5.877e-5
1.174,   5.853e-5
1.176,   5.833e-5
1.178,   5.813e-5
1.180,   5.804e-5
1.182,   5.794e-5
1.184,   5.784e-5
1.186,   5.778e-5
1.188,   5.777e-5
1.190,   5.778e-5
1.192,   5.774e-5
1.194,   5.778e-5
1.196,   5.790e-5
1.198,   5.795e-5
1.200,   5.803e-5
1.202,   5.812e-5
1.204,   5.822e-5
1.206,   5.837e-5
1.208,   5.852e-5
1.210,   5.866e-5
1.212,   5.887e-5
1.214,   5.904e-5
1.216,   5.919e-5
1.218,   5.935e-5
1.220,   5.961e-5
1.222,   5.986e-5
1.224,   6.004e-5
1.226,   6.028e-5
1.228,   6.056e-5
1.230,   6.083e-5
1.232,   6.102e-5
1.234,   6.136e-5
1.236,   6.165e-5
1.238,   6.195e-5
1.240,   6.223e-5
1.242,   6.248e-5
1.244,   6.285e-5
1.246,   6.319e-5
1.248,   6.347e-5
1.250,   6.383e-5
1.252,   6.427e-5
1.254,   6.463e-5
1.256,   6.493e-5
1.258,   6.530e-5
1.260,   6.579e-5
1.262,   6.616e-5
1.264,   6.657e-5
1.266,   6.705e-5
1.268,   6.753e-5
1.270,   6.797e-5
1.272,   6.846e-5
1.274,   6.893e-5
1.276,   6.950e-5
1.278,   7.006e-5
1.280,   7.058e-5
1.282,   7.116e-5
1.284,   7.182e-5
1.286,   7.252e-5
1.288,   7.314e-5
1.290,   7.380e-5
1.292,   7.467e-5
1.294,   7.540e-5
1.296,   7.616e-5
1.298,   7.704e-5
1.300,   7.793e-5
1.302,   7.880e-5
1.304,   7.976e-5
1.306,   8.072e-5
1.308,   8.177e-5
1.310,   8.289e-5
1.312,   8.398e-5
1.314,   8.510e-5
1.316,   8.641e-5
1.318,   8.766e-5
1.320,   8.904e-5
1.322,   9.040e-5
1.324,   9.213e-5
1.326,   9.361e-5
1.328,   9.512e-5
1.330,   9.681e-5
1.332,   9.862e-5
1.334,   1.005e-4
1.336,   1.024e-4
1.338,   1.044e-4
1.340,   1.066e-4
1.342,   1.087e-4
1.344,   1.110e-4
1.346,   1.134e-4
1.348,   1.161e-4
1.350,   1.188e-4
1.352,   1.214e-4
1.354,   1.242e-4
1.356,   1.273e-4
1.358,   1.304e-4
1.360,   1.337e-4
1.362,   1.372e-4
1.364,   1.409e-4
1.366,   1.447e-4
1.368,   1.486e-4
1.370,   1.528e-4
1.372,   1.574e-4
1.374,   1.621e-4
1.376,   1.670e-4
1.378,   1.723e-4
1.380,   1.779e-4
1.382,   1.840e-4
1.384,   1.904e-4
1.386,   1.971e-4
1.388,   2.049e-4
1.390,   2.130e-4
1.392,   2.219e-4
1.394,   2.318e-4
1.396,   2.427e-4
1.398,   2.547e-4
1.400,   2.680e-4
1.402,   2.827e-4
1.404,   2.993e-4
1.406,   3.178e-4
1.408,   3.385e-4
1.410,   3.615e-4
1.412,   3.876e-4
1.414,   4.170e-4
1.416,   4.495e-4
1.418,   4.858e-4
1.420,   5.261e-4
1.422,   5.708e-4
1.424,   6.197e-4
1.426,   6.727e-4
1.428,   7.296e-4
1.430,   7.906e-4
1.432,   8.539e-4
1.434,   9.210e-4
1.436,   9.913e-4
1.438,   1.065e-3
1.440,   1.142e-3
1.442,   1.223e-3
1.444,   1.306e-3
1.446,   1.394e-3
1.448,   1.486e-3
1.450,   1.584e-3
1.452,   1.687e-3
1.454,   1.792e-3
1.456,   1.900e-3
1.458,   2.013e-3
1.460,   2.131e-3
1.462,   2.253e-3
1.464,   2.373e-3
1.466,   2.503e-3
1.468,   2.635e-3
1.470,   2.773e-3
1.472,   2.908e-3
1.474,   3.028e-3
1.476,   3.151e-3
1.478,   3.286e-3
1.480,   3.410e-3
1.482,   3.525e-3
1.484,   3.629e-3
1.486,   3.741e-3
1.488,   3.847e-3
1.490,   3.942e-3
1.492,   4.020e-3
1.494,   4.099e-3
1.496,   4.192e-3
1.498,   4.283e-3
1.500,   4.386e-3
1.502,   4.461e-3
1.504,   4.534e-3
1.506,   4.579e-3
1.508,   4.645e-3
1.510,   4.737e-3
1.512,   4.811e-3
1.514,   4.875e-3
1.516,   4.935e-3
1.518,   4.983e-3