File: Experimental Records and Raw Data/batch4/final500/B4_BEST_500_#1_High_Quality(#17)-226mV.txt
Mar. 29, 2023   12:06:02
Linear Sweep Voltammetry
File: d:\current work\al_oer\electrochemical test data\batch 4\500\B4_BEST_500_#1_High_Quality(#17)-226mV.txt
Data Source:  Experiment
Instrument Model:  CHI660E
Header:
Note:

Init E (V) = 1.107

Final E (V) = 1.539

Scan Rate (V/s) = 0.010
Sample Interval (V) = 0.001
Quiet Time (sec) = 2
Sensitivity (A/V) = 0.001
Comp R (ohm) = 5.8

Results:

Channel 1:

Potential/V, Current/A
1.107,   1.753e-4
1.109,   1.668e-4
1.111,   1.504e-4
1.113,   1.376e-4
1.115,   1.274e-4
1.117,   1.191e-4
1.119,   1.125e-4
1.121,   1.066e-4
1.123,   1.018e-4
1.125,   9.783e-5
1.127,   9.424e-5
1.129,   9.144e-5
1.131,   8.851e-5
1.133,   8.647e-5
1.135,   8.442e-5
1.137,   8.262e-5
1.139,   8.107e-5
1.141,   7.976e-5
1.143,   7.862e-5
1.145,   7.714e-5
1.147,   7.671e-5
1.149,   7.580e-5
1.151,   7.490e-5
1.153,   7.415e-5
1.155,   7.360e-5
1.157,   7.328e-5
1.159,   7.278e-5
1.161,   7.215e-5
1.163,   7.203e-5
1.165,   7.171e-5
1.167,   7.160e-5
1.169,   7.120e-5
1.171,   7.109e-5
1.173,   7.106e-5
1.175,   7.098e-5
1.177,   7.064e-5
1.179,   7.073e-5
1.181,   7.078e-5
1.183,   7.052e-5
1.185,   7.062e-5
1.187,   7.065e-5
1.189,   7.069e-5
1.191,   7.070e-5
1.193,   7.065e-5
1.195,   7.059e-5
1.197,   7.062e-5
1.199,   7.097e-5
1.201,   7.082e-5
1.203,   7.088e-5
1.205,   7.106e-5
1.207,   7.086e-5
1.209,   7.118e-5
1.211,   7.106e-5
1.213,   7.127e-5
1.215,   7.133e-5
1.217,   7.162e-5
1.219,   7.125e-5
1.221,   7.174e-5
1.223,   7.173e-5
1.225,   7.158e-5
1.227,   7.151e-5
1.229,   7.192e-5
1.231,   7.164e-5
1.233,   7.181e-5
1.235,   7.160e-5
1.237,   7.217e-5
1.239,   7.189e-5
1.241,   7.219e-5
1.243,   7.215e-5
1.245,   7.246e-5
1.247,   7.226e-5
1.249,   7.232e-5
1.251,   7.230e-5
1.253,   7.260e-5
1.255,   7.256e-5
1.257,   7.264e-5
1.259,   7.261e-5
1.261,   7.306e-5
1.263,   7.293e-5
1.265,   7.299e-5
1.267,   7.290e-5
1.269,   7.344e-5
1.271,   7.324e-5
1.273,   7.326e-5
1.275,   7.343e-5
1.277,   7.345e-5
1.279,   7.388e-5
1.281,   7.373e-5
1.283,   7.389e-5
1.285,   7.431e-5
1.287,   7.431e-5
1.289,   7.425e-5
1.291,   7.459e-5
1.293,   7.482e-5
1.295,   7.480e-5
1.297,   7.495e-5
1.299,   7.529e-5
1.301,   7.573e-5
1.303,   7.569e-5
1.305,   7.577e-5
1.307,   7.618e-5
1.309,   7.642e-5
1.311,   7.679e-5
1.313,   7.679e-5
1.315,   7.704e-5
1.317,   7.771e-5
1.319,   7.789e-5
1.321,   7.781e-5
1.323,   7.831e-5
1.325,   7.881e-5
1.327,   7.933e-5
1.329,   7.939e-5
1.331,   8.026e-5
1.333,   8.176e-5
1.335,   8.294e-5
1.337,   8.298e-5
1.339,   8.288e-5
1.341,   8.321e-5
1.343,   8.350e-5
1.345,   8.427e-5
1.347,   8.449e-5
1.349,   8.540e-5
1.351,   8.580e-5
1.353,   8.653e-5
1.355,   8.741e-5
1.357,   8.824e-5
1.359,   8.912e-5
1.361,   8.980e-5
1.363,   9.063e-5
1.365,   9.221e-5
1.367,   9.322e-5
1.369,   9.441e-5
1.371,   9.584e-5
1.373,   9.749e-5
1.375,   9.893e-5
1.377,   1.005e-4
1.379,   1.025e-4
1.381,   1.049e-4
1.383,   1.072e-4
1.385,   1.096e-4
1.387,   1.122e-4
1.389,   1.163e-4
1.391,   1.196e-4
1.393,   1.236e-4
1.395,   1.278e-4
1.397,   1.334e-4
1.399,   1.390e-4
1.401,   1.451e-4
1.403,   1.524e-4
1.405,   1.611e-4
1.407,   1.702e-4
1.409,   1.808e-4
1.411,   1.927e-4
1.413,   2.067e-4
1.415,   2.225e-4
1.417,   2.403e-4
1.419,   2.610e-4
1.421,   2.847e-4
1.423,   3.125e-4
1.425,   3.436e-4
1.427,   3.789e-4
1.429,   4.217e-4
1.431,   4.682e-4
1.433,   5.225e-4
1.435,   5.836e-4
1.437,   6.557e-4
1.439,   7.376e-4
1.441,   8.245e-4
1.443,   9.258e-4
1.445,   1.039e-3
1.447,   1.166e-3
1.449,   1.303e-3
1.451,   1.451e-3
1.453,   1.606e-3
1.455,   1.771e-3
1.457,   1.941e-3
1.459,   2.115e-3
1.461,   2.280e-3
1.463,   2.445e-3
1.465,   2.595e-3
1.467,   2.737e-3
1.469,   2.915e-3
1.471,   3.050e-3
1.473,   3.097e-3
1.475,   3.252e-3
1.477,   3.433e-3
1.479,   3.578e-3
1.481,   3.794e-3
1.483,   3.981e-3
1.485,   4.172e-3
1.487,   4.355e-3
1.489,   4.569e-3
1.491,   4.712e-3
1.493,   4.992e-3
1.495,   5.201e-3
1.497,   5.451e-3
1.499,   5.545e-3
1.501,   5.793e-3
1.503,   6.019e-3
1.505,   6.271e-3
1.507,   6.505e-3
1.509,   6.615e-3
1.511,   6.924e-3
1.513,   7.233e-3
1.515,   7.225e-3
1.517,   7.706e-3
1.519,   7.923e-3
1.521,   8.145e-3
1.523,   8.625e-3
1.525,   8.657e-3
1.527,   8.937e-3
1.529,   8.993e-3
1.531,   9.454e-3
1.533,   9.613e-3
1.535,   9.743e-3
1.537,   9.794e-3
1.539,   1.006e-2