File: Experimental Records and Raw Data/batch4/final500/B4_VARIANCE_500_#7_High_Quality(#31)-316mV.txt
Mar. 28, 2023   12:28:29
Linear Sweep Voltammetry
File: d:\current work\al_oer\electrochemical test data\batch 4\500\B4_VARIANCE_500_#7_High_Quality(#31)-316mV.txt
Data Source:  Experiment
Instrument Model:  CHI660E
Header:
Note:

Init E (V) = 1.096

Final E (V) = 1.667

Scan Rate (V/s) = 0.010
Sample Interval (V) = 0.001
Quiet Time (sec) = 2
Sensitivity (A/V) = 0.001
Comp R (ohm) = 5.4

Results:

Channel 1:
Ep = 1.308V
ip = 2.159e-3A
Ah = 2.582e-2C

Potential/V, Current/A
1.096,   1.594e-4
1.098,   1.420e-4
1.100,   1.275e-4
1.102,   1.162e-4
1.104,   1.071e-4
1.106,   9.983e-5
1.108,   9.338e-5
1.110,   8.840e-5
1.112,   8.423e-5
1.114,   8.060e-5
1.116,   7.734e-5
1.118,   7.471e-5
1.120,   7.218e-5
1.122,   6.997e-5
1.124,   6.808e-5
1.126,   6.644e-5
1.128,   6.480e-5
1.130,   6.364e-5
1.132,   6.250e-5
1.134,   6.145e-5
1.136,   6.051e-5
1.138,   5.972e-5
1.140,   5.891e-5
1.142,   5.812e-5
1.144,   5.759e-5
1.146,   5.702e-5
1.148,   5.645e-5
1.150,   5.589e-5
1.152,   5.540e-5
1.154,   5.499e-5
1.156,   5.467e-5
1.158,   5.438e-5
1.160,   5.414e-5
1.162,   5.394e-5
1.164,   5.393e-5
1.166,   5.366e-5
1.168,   5.354e-5
1.170,   5.336e-5
1.172,   5.338e-5
1.174,   5.331e-5
1.176,   5.329e-5
1.178,   5.340e-5
1.180,   5.353e-5
1.182,   5.355e-5
1.184,   5.357e-5
1.186,   5.360e-5
1.188,   5.359e-5
1.190,   5.366e-5
1.192,   5.366e-5
1.194,   5.380e-5
1.196,   5.387e-5
1.198,   5.397e-5
1.200,   5.404e-5
1.202,   5.412e-5
1.204,   5.428e-5
1.206,   5.435e-5
1.208,   5.448e-5
1.210,   5.467e-5
1.212,   5.482e-5
1.214,   5.511e-5
1.216,   5.530e-5
1.218,   5.555e-5
1.220,   5.578e-5
1.222,   5.592e-5
1.224,   5.610e-5
1.226,   5.635e-5
1.228,   5.660e-5
1.230,   5.673e-5
1.232,   5.681e-5
1.234,   5.699e-5
1.236,   5.726e-5
1.238,   5.757e-5
1.240,   5.773e-5
1.242,   5.787e-5
1.244,   5.801e-5
1.246,   5.819e-5
1.248,   5.850e-5
1.250,   5.873e-5
1.252,   5.911e-5
1.254,   5.934e-5
1.256,   5.953e-5
1.258,   5.974e-5
1.260,   5.990e-5
1.262,   6.029e-5
1.264,   6.061e-5
1.266,   6.101e-5
1.268,   6.106e-5
1.270,   6.133e-5
1.272,   6.155e-5
1.274,   6.179e-5
1.276,   6.219e-5
1.278,   6.254e-5
1.280,   6.300e-5
1.282,   6.368e-5
1.284,   6.423e-5
1.286,   6.444e-5
1.288,   6.474e-5
1.290,   6.529e-5
1.292,   6.582e-5
1.294,   6.614e-5
1.296,   6.663e-5
1.298,   6.716e-5
1.300,   6.784e-5
1.302,   6.829e-5
1.304,   6.890e-5
1.306,   6.954e-5
1.308,   7.018e-5
1.310,   7.080e-5
1.312,   7.153e-5
1.314,   7.237e-5
1.316,   7.304e-5
1.318,   7.391e-5
1.320,   7.467e-5
1.322,   7.609e-5
1.324,   7.701e-5
1.326,   7.775e-5
1.328,   7.860e-5
1.330,   7.954e-5
1.332,   8.035e-5
1.334,   8.140e-5
1.336,   8.233e-5
1.338,   8.367e-5
1.340,   8.500e-5
1.342,   8.637e-5
1.344,   8.796e-5
1.346,   8.945e-5
1.348,   9.074e-5
1.350,   9.243e-5
1.352,   9.406e-5
1.354,   9.580e-5
1.356,   9.775e-5
1.358,   9.974e-5
1.360,   1.020e-4
1.362,   1.042e-4
1.364,   1.068e-4
1.366,   1.096e-4
1.368,   1.126e-4
1.370,   1.159e-4
1.372,   1.198e-4
1.374,   1.231e-4
1.376,   1.272e-4
1.378,   1.315e-4
1.380,   1.366e-4
1.382,   1.421e-4
1.384,   1.481e-4
1.386,   1.552e-4
1.388,   1.628e-4
1.390,   1.711e-4
1.392,   1.804e-4
1.394,   1.907e-4
1.396,   2.023e-4
1.398,   2.153e-4
1.400,   2.293e-4
1.402,   2.452e-4
1.404,   2.628e-4
1.406,   2.823e-4
1.408,   3.031e-4
1.410,   3.261e-4
1.412,   3.513e-4
1.414,   3.782e-4
1.416,   4.082e-4
1.418,   4.402e-4
1.420,   4.744e-4
1.422,   5.109e-4
1.424,   5.503e-4
1.426,   5.925e-4
1.428,   6.361e-4
1.430,   6.821e-4
1.432,   7.311e-4
1.434,   7.825e-4
1.436,   8.354e-4
1.438,   8.915e-4
1.440,   9.478e-4
1.442,   1.006e-3
1.444,   1.067e-3
1.446,   1.129e-3
1.448,   1.191e-3
1.450,   1.255e-3
1.452,   1.317e-3
1.454,   1.381e-3
1.456,   1.445e-3
1.458,   1.507e-3
1.460,   1.568e-3
1.462,   1.631e-3
1.464,   1.689e-3
1.466,   1.746e-3
1.468,   1.802e-3
1.470,   1.855e-3
1.472,   1.905e-3
1.474,   1.951e-3
1.476,   1.993e-3
1.478,   2.033e-3
1.480,   2.069e-3
1.482,   2.104e-3
1.484,   2.133e-3
1.486,   2.160e-3
1.488,   2.180e-3
1.490,   2.200e-3
1.492,   2.216e-3
1.494,   2.225e-3
1.496,   2.233e-3
1.498,   2.241e-3
1.500,   2.245e-3
1.502,   2.246e-3
1.504,   2.246e-3
1.506,   2.239e-3
1.508,   2.234e-3
1.510,   2.228e-3
1.512,   2.219e-3
1.514,   2.210e-3
1.516,   2.197e-3
1.518,   2.186e-3
1.520,   2.172e-3
1.522,   2.158e-3
1.524,   2.143e-3
1.526,   2.125e-3
1.528,   2.109e-3
1.530,   2.095e-3
1.532,   2.080e-3
1.534,   2.065e-3
1.536,   2.050e-3
1.538,   2.032e-3
1.540,   2.017e-3
1.542,   2.000e-3
1.544,   1.989e-3
1.546,   1.973e-3
1.548,   1.956e-3
1.550,   1.940e-3
1.552,   1.927e-3
1.554,   1.914e-3
1.556,   1.901e-3
1.558,   1.889e-3
1.560,   1.876e-3
1.562,   1.860e-3
1.564,   1.847e-3
1.566,   1.833e-3
1.568,   1.823e-3
1.570,   1.810e-3
1.572,   1.796e-3
1.574,   1.784e-3
1.576,   1.774e-3
1.578,   1.763e-3
1.580,   1.752e-3
1.582,   1.743e-3
1.584,   1.733e-3
1.586,   1.724e-3
1.588,   1.714e-3
1.590,   1.705e-3
1.592,   1.697e-3
1.594,   1.688e-3
1.596,   1.676e-3
1.598,   1.666e-3
1.600,   1.656e-3
1.602,   1.646e-3
1.604,   1.639e-3
1.606,   1.630e-3
1.608,   1.621e-3
1.610,   1.613e-3
1.612,   1.607e-3
1.614,   1.601e-3
1.616,   1.591e-3
1.618,   1.581e-3
1.620,   1.574e-3
1.622,   1.569e-3
1.624,   1.560e-3
1.626,   1.552e-3
1.628,   1.545e-3
1.630,   1.537e-3
1.632,   1.531e-3
1.634,   1.523e-3
1.636,   1.515e-3
1.638,   1.505e-3
1.640,   1.496e-3
1.642,   1.491e-3
1.644,   1.485e-3
1.646,   1.478e-3
1.648,   1.475e-3
1.650,   1.467e-3
1.652,   1.455e-3
1.654,   1.448e-3
1.656,   1.441e-3
1.658,   1.435e-3
1.660,   1.429e-3
1.662,   1.423e-3
1.664,   1.417e-3
1.666,   1.408e-3
1.667,   1.405e-3