File: Experimental Records and Raw Data/batch4/final500/B4_VARIANCE_500_#8_Full(#16)-363mV.txt
Mar. 28, 2023   13:52:42
Linear Sweep Voltammetry
File: d:\current work\al_oer\electrochemical test data\batch 4\500\B4_VARIANCE_500_#8_Full(#16)-363mV.txt
Data Source:  Experiment
Instrument Model:  CHI660E
Header:
Note:

Init E (V) = 1.104

Final E (V) = 1.619

Scan Rate (V/s) = 0.010
Sample Interval (V) = 0.001
Quiet Time (sec) = 2
Sensitivity (A/V) = 0.001
Comp R (ohm) = 4.7

Results:

Channel 1:

Potential/V, Current/A
1.104,   3.594E-04
1.106,   3.241E-04
1.108,   2.952E-04
1.11,   2.707E-04
1.112,   2.513E-04
1.114,   2.349E-04
1.116,   2.217E-04
1.118,   2.107E-04
1.12,   2.013E-04
1.122,   1.935E-04
1.124,   1.865E-04
1.126,   1.800E-04
1.128,   1.750E-04
1.13,   1.702E-04
1.132,   1.662E-04
1.134,   1.625E-04
1.136,   1.590E-04
1.138,   1.564E-04
1.14,   1.540E-04
1.142,   1.514E-04
1.144,   1.492E-04
1.146,   1.475E-04
1.148,   1.457E-04
1.15,   1.443E-04
1.152,   1.429E-04
1.154,   1.415E-04
1.156,   1.404E-04
1.158,   1.392E-04
1.16,   1.384E-04
1.162,   1.375E-04
1.164,   1.368E-04
1.166,   1.360E-04
1.168,   1.349E-04
1.17,   1.347E-04
1.172,   1.341E-04
1.174,   1.334E-04
1.176,   1.332E-04
1.178,   1.326E-04
1.18,   1.323E-04
1.182,   1.318E-04
1.184,   1.315E-04
1.186,   1.313E-04
1.188,   1.312E-04
1.19,   1.309E-04
1.192,   1.307E-04
1.194,   1.309E-04
1.196,   1.305E-04
1.198,   1.303E-04
1.2,   1.302E-04
1.202,   1.304E-04
1.204,   1.305E-04
1.206,   1.308E-04
1.208,   1.303E-04
1.21,   1.304E-04
1.212,   1.305E-04
1.214,   1.306E-04
1.216,   1.309E-04
1.218,   1.311E-04
1.22,   1.312E-04
1.222,   1.314E-04
1.224,   1.316E-04
1.226,   1.318E-04
1.228,   1.324E-04
1.23,   1.327E-04
1.232,   1.331E-04
1.234,   1.336E-04
1.236,   1.339E-04
1.238,   1.343E-04
1.24,   1.351E-04
1.242,   1.353E-04
1.244,   1.357E-04
1.246,   1.365E-04
1.248,   1.368E-04
1.25,   1.378E-04
1.252,   1.384E-04
1.254,   1.393E-04
1.256,   1.393E-04
1.258,   1.403E-04
1.26,   1.409E-04
1.262,   1.416E-04
1.264,   1.423E-04
1.266,   1.430E-04
1.268,   1.439E-04
1.27,   1.448E-04
1.272,   1.462E-04
1.274,   1.467E-04
1.276,   1.476E-04
1.278,   1.488E-04
1.28,   1.494E-04
1.282,   1.506E-04
1.284,   1.515E-04
1.286,   1.524E-04
1.288,   1.535E-04
1.29,   1.552E-04
1.292,   1.563E-04
1.294,   1.575E-04
1.296,   1.586E-04
1.298,   1.600E-04
1.3,   1.615E-04
1.302,   1.632E-04
1.304,   1.646E-04
1.306,   1.658E-04
1.308,   1.672E-04
1.31,   1.685E-04
1.312,   1.702E-04
1.314,   1.718E-04
1.316,   1.735E-04
1.318,   1.751E-04
1.32,   1.765E-04
1.322,   1.783E-04
1.324,   1.800E-04
1.326,   1.817E-04
1.328,   1.839E-04
1.33,   1.858E-04
1.332,   1.875E-04
1.334,   1.897E-04
1.336,   1.918E-04
1.338,   1.934E-04
1.34,   1.956E-04
1.342,   1.980E-04
1.344,   2.001E-04
1.346,   2.020E-04
1.348,   2.043E-04
1.35,   2.066E-04
1.352,   2.090E-04
1.354,   2.115E-04
1.356,   2.141E-04
1.358,   2.172E-04
1.36,   2.203E-04
1.362,   2.239E-04
1.364,   2.274E-04
1.366,   2.308E-04
1.368,   2.350E-04
1.37,   2.386E-04
1.372,   2.435E-04
1.374,   2.489E-04
1.376,   2.544E-04
1.378,   2.597E-04
1.38,   2.654E-04
1.382,   2.718E-04
1.384,   2.791E-04
1.386,   2.861E-04
1.388,   2.945E-04
1.39,   3.027E-04
1.392,   3.126E-04
1.394,   3.226E-04
1.396,   3.334E-04
1.398,   3.447E-04
1.4,   3.579E-04
1.402,   3.711E-04
1.404,   3.866E-04
1.406,   4.032E-04
1.408,   4.191E-04
1.41,   4.372E-04
1.412,   4.565E-04
1.414,   4.753E-04
1.416,   4.961E-04
1.418,   5.187E-04
1.42,   5.416E-04
1.422,   5.645E-04
1.424,   5.879E-04
1.426,   6.129E-04
1.428,   6.368E-04
1.43,   6.597E-04
1.432,   6.826E-04
1.434,   7.055E-04
1.436,   7.267E-04
1.438,   7.501E-04
1.44,   7.693E-04
1.442,   7.900E-04
1.444,   8.076E-04
1.446,   8.246E-04
1.448,   8.401E-04
1.45,   8.534E-04
1.452,   8.651E-04
1.454,   8.736E-04
1.456,   8.821E-04
1.458,   8.879E-04
1.46,   8.927E-04
1.462,   8.991E-04
1.464,   9.044E-04
1.466,   9.082E-04
1.468,   9.135E-04
1.47,   9.220E-04
1.472,   9.326E-04
1.474,   9.465E-04
1.476,   9.560E-04
1.478,   9.656E-04
1.48,   9.805E-04
1.482,   9.991E-04
1.484,   1.013E-03
1.486,   1.034E-03
1.488,   1.059E-03
1.49,   1.082E-03
1.492,   1.106E-03
1.494,   1.130E-03
1.496,   1.152E-03
1.498,   1.172E-03
1.5,   1.194E-03
1.502,   1.217E-03
1.504,   1.238E-03
1.506,   1.263E-03
1.508,   1.285E-03
1.51,   1.311E-03
1.512,   1.335E-03
1.514,   1.362E-03
1.516,   1.405E-03
1.518,   1.441E-03
1.52,   1.480E-03
1.522,   1.529E-03
1.524,   1.577E-03
1.526,   1.627E-03
1.528,   1.677E-03
1.53,   1.714E-03
1.532,   1.748E-03
1.534,   1.783E-03
1.536,   1.815E-03
1.538,   1.835E-03
1.54,   1.861E-03
1.542,   1.883E-03
1.544,   1.897E-03
1.546,   1.905E-03
1.548,   1.919E-03
1.55,   1.929E-03
1.552,   1.930E-03
1.554,   1.920E-03
1.556,   1.936E-03
1.558,   1.935E-03
1.56,   1.940E-03
1.562,   1.961E-03
1.564,   1.945E-03
1.566,   1.956E-03
1.568,   1.950E-03
1.57,   1.947E-03
1.572,   1.956E-03
1.574,   1.962E-03
1.576,   1.950E-03
1.578,   1.945E-03
1.58,   1.956E-03
1.582,   1.957E-03
1.584,   1.956E-03
1.586,   1.960E-03
1.588,   1.963E-03
1.59,   1.959E-03
1.592,   1.965E-03
1.594,   1.973E-03
1.596,   1.959E-03
1.598,   1.956E-03
1.6,   1.944E-03
1.602,   1.942E-03
1.604,   1.937E-03
1.606,   1.937E-03
1.608,   1.939E-03
1.61,   1.935E-03
1.612,   1.927E-03
1.614,   1.923E-03
1.616,   1.916E-03
1.618,   1.909E-03
1.619,   1.904E-03