File: Experimental Records and Raw Data/batch4/final500/B4_VARIANCE_500_#5_High_Quality(#29)-270mV.txt
Mar. 29, 2023   12:58:20
Linear Sweep Voltammetry
File: d:\current work\al_oer\electrochemical test data\batch 4\500\B4_VARIANCE_500_#5_High_Quality(#29)-270mV.txt
Data Source:  Experiment
Instrument Model:  CHI660E
Header:
Note:

Init E (V) = 1.095

Final E (V) = 1.593

Scan Rate (V/s) = 0.010
Sample Interval (V) = 0.001
Quiet Time (sec) = 2
Sensitivity (A/V) = 0.001
Comp R (ohm) = 6.6

Results:

Channel 1:

Potential/V, Current/A
1.095,   5.486e-4
1.097,   4.827e-4
1.099,   4.262e-4
1.101,   3.805e-4
1.103,   3.440e-4
1.105,   3.134e-4
1.107,   2.876e-4
1.109,   2.670e-4
1.111,   2.492e-4
1.113,   2.340e-4
1.115,   2.212e-4
1.117,   2.097e-4
1.119,   2.003e-4
1.121,   1.920e-4
1.123,   1.845e-4
1.125,   1.777e-4
1.127,   1.715e-4
1.129,   1.667e-4
1.131,   1.620e-4
1.133,   1.580e-4
1.135,   1.538e-4
1.137,   1.506e-4
1.139,   1.477e-4
1.141,   1.450e-4
1.143,   1.424e-4
1.145,   1.402e-4
1.147,   1.383e-4
1.149,   1.364e-4
1.151,   1.346e-4
1.153,   1.331e-4
1.155,   1.318e-4
1.157,   1.304e-4
1.159,   1.293e-4
1.161,   1.283e-4
1.163,   1.274e-4
1.165,   1.260e-4
1.167,   1.254e-4
1.169,   1.249e-4
1.171,   1.242e-4
1.173,   1.239e-4
1.175,   1.234e-4
1.177,   1.231e-4
1.179,   1.228e-4
1.181,   1.227e-4
1.183,   1.224e-4
1.185,   1.224e-4
1.187,   1.224e-4
1.189,   1.222e-4
1.191,   1.221e-4
1.193,   1.222e-4
1.195,   1.222e-4
1.197,   1.223e-4
1.199,   1.222e-4
1.201,   1.223e-4
1.203,   1.224e-4
1.205,   1.225e-4
1.207,   1.225e-4
1.209,   1.227e-4
1.211,   1.228e-4
1.213,   1.228e-4
1.215,   1.230e-4
1.217,   1.232e-4
1.219,   1.232e-4
1.221,   1.235e-4
1.223,   1.233e-4
1.225,   1.236e-4
1.227,   1.235e-4
1.229,   1.237e-4
1.231,   1.239e-4
1.233,   1.239e-4
1.235,   1.241e-4
1.237,   1.239e-4
1.239,   1.239e-4
1.241,   1.241e-4
1.243,   1.241e-4
1.245,   1.242e-4
1.247,   1.242e-4
1.249,   1.244e-4
1.251,   1.243e-4
1.253,   1.243e-4
1.255,   1.244e-4
1.257,   1.246e-4
1.259,   1.246e-4
1.261,   1.245e-4
1.263,   1.248e-4
1.265,   1.250e-4
1.267,   1.251e-4
1.269,   1.251e-4
1.271,   1.252e-4
1.273,   1.250e-4
1.275,   1.251e-4
1.277,   1.250e-4
1.279,   1.254e-4
1.281,   1.261e-4
1.283,   1.262e-4
1.285,   1.261e-4
1.287,   1.261e-4
1.289,   1.260e-4
1.291,   1.252e-4
1.293,   1.253e-4
1.295,   1.255e-4
1.297,   1.256e-4
1.299,   1.257e-4
1.301,   1.257e-4
1.303,   1.259e-4
1.305,   1.262e-4
1.307,   1.263e-4
1.309,   1.264e-4
1.311,   1.265e-4
1.313,   1.268e-4
1.315,   1.271e-4
1.317,   1.272e-4
1.319,   1.274e-4
1.321,   1.280e-4
1.323,   1.282e-4
1.325,   1.283e-4
1.327,   1.288e-4
1.329,   1.291e-4
1.331,   1.295e-4
1.333,   1.299e-4
1.335,   1.303e-4
1.337,   1.309e-4
1.339,   1.317e-4
1.341,   1.322e-4
1.343,   1.328e-4
1.345,   1.333e-4
1.347,   1.339e-4
1.349,   1.347e-4
1.351,   1.353e-4
1.353,   1.361e-4
1.355,   1.369e-4
1.357,   1.376e-4
1.359,   1.389e-4
1.361,   1.398e-4
1.363,   1.409e-4
1.365,   1.420e-4
1.367,   1.432e-4
1.369,   1.448e-4
1.371,   1.464e-4
1.373,   1.479e-4
1.375,   1.496e-4
1.377,   1.512e-4
1.379,   1.532e-4
1.381,   1.551e-4
1.383,   1.574e-4
1.385,   1.600e-4
1.387,   1.624e-4
1.389,   1.651e-4
1.391,   1.687e-4
1.393,   1.727e-4
1.395,   1.761e-4
1.397,   1.798e-4
1.399,   1.837e-4
1.401,   1.882e-4
1.403,   1.928e-4
1.405,   1.982e-4
1.407,   2.040e-4
1.409,   2.100e-4
1.411,   2.170e-4
1.413,   2.241e-4
1.415,   2.319e-4
1.417,   2.406e-4
1.419,   2.500e-4
1.421,   2.603e-4
1.423,   2.712e-4
1.425,   2.827e-4
1.427,   2.952e-4
1.429,   3.089e-4
1.431,   3.236e-4
1.433,   3.392e-4
1.435,   3.559e-4
1.437,   3.737e-4
1.439,   3.929e-4
1.441,   4.134e-4
1.443,   4.355e-4
1.445,   4.589e-4
1.447,   4.836e-4
1.449,   5.099e-4
1.451,   5.382e-4
1.453,   5.675e-4
1.455,   5.986e-4
1.457,   6.321e-4
1.459,   6.675e-4
1.461,   7.045e-4
1.463,   7.440e-4
1.465,   7.861e-4
1.467,   8.297e-4
1.469,   8.765e-4
1.471,   9.258e-4
1.473,   9.768e-4
1.475,   1.030e-3
1.477,   1.088e-3
1.479,   1.146e-3
1.481,   1.209e-3
1.483,   1.273e-3
1.485,   1.340e-3
1.487,   1.410e-3
1.489,   1.483e-3
1.491,   1.558e-3
1.493,   1.635e-3
1.495,   1.716e-3
1.497,   1.797e-3
1.499,   1.877e-3
1.501,   1.964e-3
1.503,   2.054e-3
1.505,   2.145e-3
1.507,   2.236e-3
1.509,   2.333e-3
1.511,   2.427e-3
1.513,   2.525e-3
1.515,   2.624e-3
1.517,   2.724e-3
1.519,   2.828e-3
1.521,   2.931e-3
1.523,   3.028e-3
1.525,   3.138e-3
1.527,   3.242e-3
1.529,   3.352e-3
1.531,   3.461e-3
1.533,   3.570e-3
1.535,   3.678e-3
1.537,   3.784e-3
1.539,   3.866e-3
1.541,   3.973e-3
1.543,   4.082e-3
1.545,   4.185e-3
1.547,   4.295e-3
1.549,   4.402e-3
1.551,   4.507e-3
1.553,   4.616e-3
1.555,   4.710e-3
1.557,   4.828e-3
1.559,   4.939e-3
1.561,   5.046e-3
1.563,   5.153e-3
1.565,   5.175e-3
1.567,   5.268e-3
1.569,   5.366e-3
1.571,   5.485e-3
1.573,   5.599e-3
1.575,   5.607e-3
1.577,   5.677e-3
1.579,   5.781e-3
1.581,   5.534e-3
1.583,   5.599e-3
1.585,   5.695e-3
1.587,   5.805e-3
1.589,   5.903e-3
1.591,   5.994e-3
1.593,   6.087e-3