File: Experimental Records and Raw Data/batch4/final500/B4_VARIANCE_500_#6_High_Quality(#30)-329mV.txt
Mar. 28, 2023   12:12:09
Linear Sweep Voltammetry
File: d:\current work\al_oer\electrochemical test data\batch 4\500\B4_VARIANCE_500_#6_High_Quality(#30)-329mV.txt
Data Source:  Experiment
Instrument Model:  CHI660E
Header:
Note:

Init E (V) = 1.101

Final E (V) = 1.582

Scan Rate (V/s) = 0.010
Sample Interval (V) = 0.001
Quiet Time (sec) = 2
Sensitivity (A/V) = 0.001
Comp R (ohm) = 5.0

Results:

Channel 1:
Ep = 1.237V
ip = 3.746e-4A
Ah = 1.487e-3C

Potential/V, Current/A
1.101,   1.246E-04
1.103,   1.164E-04
1.105,   1.084E-04
1.107,   1.013E-04
1.109,   9.575E-05
1.111,   9.102E-05
1.113,   8.693E-05
1.115,   8.317E-05
1.117,   8.028E-05
1.119,   7.803E-05
1.121,   7.596E-05
1.123,   7.390E-05
1.125,   7.211E-05
1.127,   7.050E-05
1.129,   6.908E-05
1.131,   6.770E-05
1.133,   6.651E-05
1.135,   6.527E-05
1.137,   6.458E-05
1.139,   6.366E-05
1.141,   6.261E-05
1.143,   6.196E-05
1.145,   6.137E-05
1.147,   6.077E-05
1.149,   6.008E-05
1.151,   5.994E-05
1.153,   5.930E-05
1.155,   5.866E-05
1.157,   5.843E-05
1.159,   5.797E-05
1.161,   5.788E-05
1.163,   5.760E-05
1.165,   5.719E-05
1.167,   5.692E-05
1.169,   5.664E-05
1.171,   5.659E-05
1.173,   5.641E-05
1.175,   5.623E-05
1.177,   5.595E-05
1.179,   5.595E-05
1.181,   5.568E-05
1.183,   5.572E-05
1.185,   5.558E-05
1.187,   5.545E-05
1.189,   5.545E-05
1.191,   5.535E-05
1.193,   5.549E-05
1.195,   5.535E-05
1.197,   5.563E-05
1.199,   5.577E-05
1.201,   5.558E-05
1.203,   5.572E-05
1.205,   5.577E-05
1.207,   5.568E-05
1.209,   5.581E-05
1.211,   5.581E-05
1.213,   5.609E-05
1.215,   5.618E-05
1.217,   5.636E-05
1.219,   5.673E-05
1.221,   5.673E-05
1.223,   5.692E-05
1.225,   5.705E-05
1.227,   5.724E-05
1.229,   5.710E-05
1.231,   5.742E-05
1.233,   5.760E-05
1.235,   5.802E-05
1.237,   5.774E-05
1.239,   5.815E-05
1.241,   5.843E-05
1.243,   5.866E-05
1.245,   5.898E-05
1.247,   5.930E-05
1.249,   5.949E-05
1.251,   5.990E-05
1.253,   6.013E-05
1.255,   6.040E-05
1.257,   6.086E-05
1.259,   6.128E-05
1.261,   6.160E-05
1.263,   6.187E-05
1.265,   6.210E-05
1.267,   6.238E-05
1.269,   6.311E-05
1.271,   6.334E-05
1.273,   6.362E-05
1.275,   6.412E-05
1.277,   6.458E-05
1.279,   6.509E-05
1.281,   6.564E-05
1.283,   6.628E-05
1.285,   6.651E-05
1.287,   6.697E-05
1.289,   6.766E-05
1.291,   6.825E-05
1.293,   6.876E-05
1.295,   6.940E-05
1.297,   7.013E-05
1.299,   7.064E-05
1.301,   7.128E-05
1.303,   7.179E-05
1.305,   7.238E-05
1.307,   7.390E-05
1.309,   7.495E-05
1.311,   7.550E-05
1.313,   7.642E-05
1.315,   7.670E-05
1.317,   7.716E-05
1.319,   7.798E-05
1.321,   7.895E-05
1.323,   7.954E-05
1.325,   8.042E-05
1.327,   8.166E-05
1.329,   8.285E-05
1.331,   8.404E-05
1.333,   8.510E-05
1.335,   8.638E-05
1.337,   8.799E-05
1.339,   8.904E-05
1.341,   9.038E-05
1.343,   9.157E-05
1.345,   9.267E-05
1.347,   9.423E-05
1.349,   9.621E-05
1.351,   9.758E-05
1.353,   9.864E-05
1.355,   1.004E-04
1.357,   1.023E-04
1.359,   1.033E-04
1.361,   1.052E-04
1.363,   1.079E-04
1.365,   1.103E-04
1.367,   1.125E-04
1.369,   1.151E-04
1.371,   1.173E-04
1.373,   1.198E-04
1.375,   1.228E-04
1.377,   1.258E-04
1.379,   1.299E-04
1.381,   1.344E-04
1.383,   1.389E-04
1.385,   1.438E-04
1.387,   1.493E-04
1.389,   1.555E-04
1.391,   1.627E-04
1.393,   1.707E-04
1.395,   1.801E-04
1.397,   1.907E-04
1.399,   2.022E-04
1.401,   2.165E-04
1.403,   2.329E-04
1.405,   2.519E-04
1.407,   2.760E-04
1.409,   3.052E-04
1.411,   3.412E-04
1.413,   3.875E-04
1.415,   4.461E-04
1.417,   5.210E-04
1.419,   6.192E-04
1.421,   7.417E-04
1.423,   8.900E-04
1.425,   1.059E-03
1.427,   1.241E-03
1.429,   1.417E-03
1.431,   1.572E-03
1.433,   1.690E-03
1.435,   1.756E-03
1.437,   1.776E-03
1.439,   1.752E-03
1.441,   1.694E-03
1.443,   1.617E-03
1.445,   1.527E-03
1.447,   1.436E-03
1.449,   1.358E-03
1.451,   1.280E-03
1.453,   1.220E-03
1.455,   1.172E-03
1.457,   1.134E-03
1.459,   1.103E-03
1.461,   1.086E-03
1.463,   1.074E-03
1.465,   1.069E-03
1.467,   1.072E-03
1.469,   1.082E-03
1.471,   1.088E-03
1.473,   1.097E-03
1.475,   1.113E-03
1.477,   1.132E-03
1.479,   1.154E-03
1.481,   1.175E-03
1.483,   1.196E-03
1.485,   1.223E-03
1.487,   1.252E-03
1.489,   1.280E-03
1.491,   1.305E-03
1.493,   1.334E-03
1.495,   1.363E-03
1.497,   1.389E-03
1.499,   1.421E-03
1.501,   1.455E-03
1.503,   1.484E-03
1.505,   1.511E-03
1.507,   1.540E-03
1.509,   1.572E-03
1.511,   1.596E-03
1.513,   1.624E-03
1.515,   1.650E-03
1.517,   1.677E-03
1.519,   1.706E-03
1.521,   1.734E-03
1.523,   1.764E-03
1.525,   1.786E-03
1.527,   1.813E-03
1.529,   1.837E-03
1.531,   1.859E-03
1.533,   1.877E-03
1.535,   1.895E-03
1.537,   1.911E-03
1.539,   1.926E-03
1.541,   1.932E-03
1.543,   1.942E-03
1.545,   1.948E-03
1.547,   1.951E-03
1.549,   1.953E-03
1.551,   1.959E-03
1.553,   1.961E-03
1.555,   1.964E-03
1.557,   1.970E-03
1.559,   1.972E-03
1.561,   1.970E-03
1.563,   1.967E-03
1.565,   1.967E-03
1.567,   1.965E-03
1.569,   1.960E-03
1.571,   1.959E-03
1.573,   1.954E-03
1.575,   1.950E-03
1.577,   1.946E-03
1.579,   1.940E-03
1.581,   1.935E-03
1.582,   1.936E-03