File: Experimental Records, Raw Data, and Supplementary Notes and Figures/batch4/final500/B4_BEST_500_#5_High_Quality(#21)-194mV.txt
Mar. 29, 2023   11:29:14
Linear Sweep Voltammetry
File: d:\current work\al_oer\electrochemical test data\batch 4\500\B4_BEST_500_#5_High_Quality(#21)-194mV.txt
Data Source:  Experiment
Instrument Model:  CHI660E
Header:
Note:

Init E (V) = 1.098

Final E (V) = 1.457

Scan Rate (V/s) = 0.010
Sample Interval (V) = 0.001
Quiet Time (sec) = 2
Sensitivity (A/V) = 0.001
Comp R (ohm) = 5.0

Results:

Channel 1:

Potential/V, Current/A
1.098,   1.742e-4
1.100,   2.013e-4
1.102,   1.862e-4
1.104,   1.753e-4
1.106,   1.678e-4
1.108,   1.617e-4
1.110,   1.570e-4
1.112,   1.532e-4
1.114,   1.499e-4
1.116,   1.484e-4
1.118,   1.468e-4
1.120,   1.446e-4
1.122,   1.435e-4
1.124,   1.432e-4
1.126,   1.423e-4
1.128,   1.416e-4
1.130,   1.414e-4
1.132,   1.421e-4
1.134,   1.416e-4
1.136,   1.415e-4
1.138,   1.420e-4
1.140,   1.427e-4
1.142,   1.430e-4
1.144,   1.434e-4
1.146,   1.438e-4
1.148,   1.452e-4
1.150,   1.452e-4
1.152,   1.459e-4
1.154,   1.470e-4
1.156,   1.484e-4
1.158,   1.491e-4
1.160,   1.498e-4
1.162,   1.507e-4
1.164,   1.526e-4
1.166,   1.531e-4
1.168,   1.538e-4
1.170,   1.553e-4
1.172,   1.569e-4
1.174,   1.578e-4
1.176,   1.587e-4
1.178,   1.594e-4
1.180,   1.620e-4
1.182,   1.628e-4
1.184,   1.633e-4
1.186,   1.645e-4
1.188,   1.660e-4
1.190,   1.671e-4
1.192,   1.679e-4
1.194,   1.687e-4
1.196,   1.709e-4
1.198,   1.714e-4
1.200,   1.719e-4
1.202,   1.729e-4
1.204,   1.744e-4
1.206,   1.748e-4
1.208,   1.760e-4
1.210,   1.759e-4
1.212,   1.778e-4
1.214,   1.780e-4
1.216,   1.781e-4
1.218,   1.787e-4
1.220,   1.797e-4
1.222,   1.801e-4
1.224,   1.797e-4
1.226,   1.801e-4
1.228,   1.814e-4
1.230,   1.811e-4
1.232,   1.807e-4
1.234,   1.816e-4
1.236,   1.817e-4
1.238,   1.814e-4
1.240,   1.816e-4
1.242,   1.814e-4
1.244,   1.819e-4
1.246,   1.817e-4
1.248,   1.812e-4
1.250,   1.811e-4
1.252,   1.815e-4
1.254,   1.812e-4
1.256,   1.804e-4
1.258,   1.801e-4
1.260,   1.811e-4
1.262,   1.804e-4
1.264,   1.794e-4
1.266,   1.799e-4
1.268,   1.802e-4
1.270,   1.797e-4
1.272,   1.797e-4
1.274,   1.791e-4
1.276,   1.797e-4
1.278,   1.793e-4
1.280,   1.787e-4
1.282,   1.789e-4
1.284,   1.795e-4
1.286,   1.793e-4
1.288,   1.788e-4
1.290,   1.788e-4
1.292,   1.800e-4
1.294,   1.799e-4
1.296,   1.794e-4
1.298,   1.805e-4
1.300,   1.810e-4
1.302,   1.811e-4
1.304,   1.814e-4
1.306,   1.814e-4
1.308,   1.828e-4
1.310,   1.835e-4
1.312,   1.835e-4
1.314,   1.841e-4
1.316,   1.857e-4
1.318,   1.864e-4
1.320,   1.870e-4
1.322,   1.878e-4
1.324,   1.906e-4
1.326,   1.902e-4
1.328,   1.914e-4
1.330,   1.930e-4
1.332,   1.947e-4
1.334,   1.959e-4
1.336,   1.978e-4
1.338,   1.988e-4
1.340,   2.015e-4
1.342,   2.034e-4
1.344,   2.047e-4
1.346,   2.072e-4
1.348,   2.100e-4
1.350,   2.123e-4
1.352,   2.147e-4
1.354,   2.175e-4
1.356,   2.219e-4
1.358,   2.247e-4
1.360,   2.281e-4
1.362,   2.330e-4
1.364,   2.374e-4
1.366,   2.423e-4
1.368,   2.479e-4
1.370,   2.533e-4
1.372,   2.615e-4
1.374,   2.690e-4
1.376,   2.773e-4
1.378,   2.867e-4
1.380,   2.985e-4
1.382,   3.107e-4
1.384,   3.246e-4
1.386,   3.410e-4
1.388,   3.611e-4
1.390,   3.821e-4
1.392,   4.061e-4
1.394,   4.347e-4
1.396,   4.678e-4
1.398,   5.049e-4
1.400,   5.476e-4
1.402,   5.969e-4
1.404,   6.545e-4
1.406,   7.189e-4
1.408,   7.919e-4
1.410,   8.766e-4
1.412,   9.731e-4
1.414,   1.082e-3
1.416,   1.205e-3
1.418,   1.346e-3
1.420,   1.506e-3
1.422,   1.685e-3
1.424,   1.883e-3
1.426,   2.109e-3
1.428,   2.363e-3
1.430,   2.643e-3
1.432,   2.956e-3
1.434,   3.305e-3
1.436,   3.694e-3
1.438,   4.122e-3
1.440,   4.602e-3
1.442,   5.120e-3
1.444,   5.700e-3
1.446,   6.326e-3
1.448,   7.000e-3
1.450,   7.769e-3
1.452,   8.663e-3
1.454,   9.602e-3
1.456,   1.006e-2
1.457,   1.006e-2