File: Experimental Records, Raw Data, and Supplementary Notes and Figures/batch4/final500/B4_BEST_500_#6_High_Quality(#22)-193mV.txt
Mar. 29, 2023   11:37:57
Linear Sweep Voltammetry
File: d:\current work\al_oer\electrochemical test data\batch 4\500\B4_BEST_500_#6_High_Quality(#22)-193mV.txt
Data Source:  Experiment
Instrument Model:  CHI660E
Header:
Note:

Init E (V) = 1.097

Final E (V) = 1.478

Scan Rate (V/s) = 0.010
Sample Interval (V) = 0.001
Quiet Time (sec) = 2
Sensitivity (A/V) = 0.001
Comp R (ohm) = 5.3

Results:

Channel 1:

Potential/V, Current/A
1.097,   3.382e-4
1.099,   3.096e-4
1.101,   2.717e-4
1.103,   2.442e-4
1.105,   2.244e-4
1.107,   2.095e-4
1.109,   1.983e-4
1.111,   1.893e-4
1.113,   1.818e-4
1.115,   1.761e-4
1.117,   1.714e-4
1.119,   1.673e-4
1.121,   1.640e-4
1.123,   1.613e-4
1.125,   1.589e-4
1.127,   1.568e-4
1.129,   1.549e-4
1.131,   1.541e-4
1.133,   1.527e-4
1.135,   1.515e-4
1.137,   1.509e-4
1.139,   1.506e-4
1.141,   1.502e-4
1.143,   1.499e-4
1.145,   1.497e-4
1.147,   1.499e-4
1.149,   1.500e-4
1.151,   1.500e-4
1.153,   1.502e-4
1.155,   1.508e-4
1.157,   1.513e-4
1.159,   1.517e-4
1.161,   1.521e-4
1.163,   1.533e-4
1.165,   1.538e-4
1.167,   1.543e-4
1.169,   1.554e-4
1.171,   1.562e-4
1.173,   1.570e-4
1.175,   1.578e-4
1.177,   1.585e-4
1.179,   1.598e-4
1.181,   1.607e-4
1.183,   1.614e-4
1.185,   1.622e-4
1.187,   1.636e-4
1.189,   1.647e-4
1.191,   1.653e-4
1.193,   1.663e-4
1.195,   1.677e-4
1.197,   1.686e-4
1.199,   1.695e-4
1.201,   1.702e-4
1.203,   1.714e-4
1.205,   1.725e-4
1.207,   1.736e-4
1.209,   1.741e-4
1.211,   1.754e-4
1.213,   1.762e-4
1.215,   1.769e-4
1.217,   1.776e-4
1.219,   1.788e-4
1.221,   1.796e-4
1.223,   1.804e-4
1.225,   1.809e-4
1.227,   1.822e-4
1.229,   1.829e-4
1.231,   1.832e-4
1.233,   1.844e-4
1.235,   1.850e-4
1.237,   1.855e-4
1.239,   1.861e-4
1.241,   1.862e-4
1.243,   1.874e-4
1.245,   1.877e-4
1.247,   1.881e-4
1.249,   1.884e-4
1.251,   1.881e-4
1.253,   1.888e-4
1.255,   1.893e-4
1.257,   1.897e-4
1.259,   1.906e-4
1.261,   1.906e-4
1.263,   1.908e-4
1.265,   1.911e-4
1.267,   1.915e-4
1.269,   1.920e-4
1.271,   1.925e-4
1.273,   1.924e-4
1.275,   1.932e-4
1.277,   1.936e-4
1.279,   1.937e-4
1.281,   1.941e-4
1.283,   1.950e-4
1.285,   1.956e-4
1.287,   1.958e-4
1.289,   1.964e-4
1.291,   1.977e-4
1.293,   1.982e-4
1.295,   1.988e-4
1.297,   1.998e-4
1.299,   2.007e-4
1.301,   2.016e-4
1.303,   2.023e-4
1.305,   2.031e-4
1.307,   2.048e-4
1.309,   2.058e-4
1.311,   2.068e-4
1.313,   2.082e-4
1.315,   2.096e-4
1.317,   2.111e-4
1.319,   2.123e-4
1.321,   2.135e-4
1.323,   2.163e-4
1.325,   2.173e-4
1.327,   2.188e-4
1.329,   2.208e-4
1.331,   2.230e-4
1.333,   2.251e-4
1.335,   2.272e-4
1.337,   2.291e-4
1.339,   2.319e-4
1.341,   2.346e-4
1.343,   2.370e-4
1.345,   2.397e-4
1.347,   2.431e-4
1.349,   2.465e-4
1.351,   2.500e-4
1.353,   2.535e-4
1.355,   2.580e-4
1.357,   2.621e-4
1.359,   2.667e-4
1.361,   2.722e-4
1.363,   2.777e-4
1.365,   2.840e-4
1.367,   2.907e-4
1.369,   2.980e-4
1.371,   3.064e-4
1.373,   3.159e-4
1.375,   3.260e-4
1.377,   3.376e-4
1.379,   3.509e-4
1.381,   3.657e-4
1.383,   3.822e-4
1.385,   4.012e-4
1.387,   4.242e-4
1.389,   4.486e-4
1.391,   4.767e-4
1.393,   5.089e-4
1.395,   5.458e-4
1.397,   5.880e-4
1.399,   6.362e-4
1.401,   6.903e-4
1.403,   7.515e-4
1.405,   8.218e-4
1.407,   8.985e-4
1.409,   9.865e-4
1.411,   1.085e-3
1.413,   1.191e-3
1.415,   1.307e-3
1.417,   1.441e-3
1.419,   1.587e-3
1.421,   1.742e-3
1.423,   1.911e-3
1.425,   2.093e-3
1.427,   2.289e-3
1.429,   2.504e-3
1.431,   2.729e-3
1.433,   2.958e-3
1.435,   3.212e-3
1.437,   3.428e-3
1.439,   3.692e-3
1.441,   3.979e-3
1.443,   4.260e-3
1.445,   4.540e-3
1.447,   4.868e-3
1.449,   5.109e-3
1.451,   5.414e-3
1.453,   5.739e-3
1.455,   6.067e-3
1.457,   6.423e-3
1.459,   6.843e-3
1.461,   7.151e-3
1.463,   7.481e-3
1.465,   7.826e-3
1.467,   8.153e-3
1.469,   8.572e-3
1.471,   8.769e-3
1.473,   9.185e-3
1.475,   9.447e-3
1.477,   1.002e-2
1.478,   1.006e-2