File: Experimental Records, Raw Data, and Supplementary Notes and Figures/batch4/final500/B4_BEST_500_#4_High_Quality(#20)-242mV.txt
Mar. 29, 2023   12:52:33
Linear Sweep Voltammetry
File: d:\current work\al_oer\electrochemical test data\batch 4\500\B4_BEST_500_#4_High_Quality(#20)-242mV.txt
Data Source:  Experiment
Instrument Model:  CHI660E
Header:
Note:

Init E (V) = 1.098

Final E (V) = 1.564

Scan Rate (V/s) = 0.010
Sample Interval (V) = 0.001
Quiet Time (sec) = 2
Sensitivity (A/V) = 0.001
Comp R (ohm) = 6.5

Results:

Channel 1:

Potential/V, Current/A
1.098,   1.200e-3
1.100,   9.860e-4
1.102,   8.197e-4
1.104,   6.924e-4
1.106,   5.997e-4
1.108,   5.271e-4
1.110,   4.741e-4
1.112,   4.292e-4
1.114,   3.933e-4
1.116,   3.645e-4
1.118,   3.404e-4
1.120,   3.220e-4
1.122,   3.043e-4
1.124,   2.872e-4
1.126,   2.754e-4
1.128,   2.660e-4
1.130,   2.564e-4
1.132,   2.487e-4
1.134,   2.415e-4
1.136,   2.353e-4
1.138,   2.292e-4
1.140,   2.237e-4
1.142,   2.189e-4
1.144,   2.149e-4
1.146,   2.113e-4
1.148,   2.082e-4
1.150,   2.053e-4
1.152,   2.022e-4
1.154,   1.996e-4
1.156,   1.973e-4
1.158,   1.960e-4
1.160,   1.943e-4
1.162,   1.912e-4
1.164,   1.904e-4
1.166,   1.897e-4
1.168,   1.885e-4
1.170,   1.876e-4
1.172,   1.870e-4
1.174,   1.866e-4
1.176,   1.866e-4
1.178,   1.866e-4
1.180,   1.865e-4
1.182,   1.861e-4
1.184,   1.863e-4
1.186,   1.862e-4
1.188,   1.865e-4
1.190,   1.867e-4
1.192,   1.871e-4
1.194,   1.877e-4
1.196,   1.883e-4
1.198,   1.888e-4
1.200,   1.892e-4
1.202,   1.900e-4
1.204,   1.907e-4
1.206,   1.916e-4
1.208,   1.922e-4
1.210,   1.928e-4
1.212,   1.935e-4
1.214,   1.942e-4
1.216,   1.950e-4
1.218,   1.958e-4
1.220,   1.967e-4
1.222,   1.979e-4
1.224,   1.991e-4
1.226,   1.999e-4
1.228,   2.008e-4
1.230,   2.015e-4
1.232,   2.024e-4
1.234,   2.040e-4
1.236,   2.062e-4
1.238,   2.064e-4
1.240,   2.080e-4
1.242,   2.095e-4
1.244,   2.104e-4
1.246,   2.123e-4
1.248,   2.136e-4
1.250,   2.152e-4
1.252,   2.169e-4
1.254,   2.190e-4
1.256,   2.209e-4
1.258,   2.221e-4
1.260,   2.241e-4
1.262,   2.255e-4
1.264,   2.270e-4
1.266,   2.289e-4
1.268,   2.304e-4
1.270,   2.324e-4
1.272,   2.343e-4
1.274,   2.358e-4
1.276,   2.380e-4
1.278,   2.401e-4
1.280,   2.420e-4
1.282,   2.437e-4
1.284,   2.456e-4
1.286,   2.475e-4
1.288,   2.486e-4
1.290,   2.499e-4
1.292,   2.520e-4
1.294,   2.533e-4
1.296,   2.549e-4
1.298,   2.570e-4
1.300,   2.592e-4
1.302,   2.606e-4
1.304,   2.618e-4
1.306,   2.635e-4
1.308,   2.653e-4
1.310,   2.671e-4
1.312,   2.692e-4
1.314,   2.704e-4
1.316,   2.719e-4
1.318,   2.738e-4
1.320,   2.761e-4
1.322,   2.780e-4
1.324,   2.802e-4
1.326,   2.820e-4
1.328,   2.840e-4
1.330,   2.859e-4
1.332,   2.884e-4
1.334,   2.908e-4
1.336,   2.929e-4
1.338,   2.949e-4
1.340,   2.977e-4
1.342,   3.005e-4
1.344,   3.029e-4
1.346,   3.049e-4
1.348,   3.080e-4
1.350,   3.113e-4
1.352,   3.142e-4
1.354,   3.171e-4
1.356,   3.204e-4
1.358,   3.239e-4
1.360,   3.267e-4
1.362,   3.317e-4
1.364,   3.362e-4
1.366,   3.407e-4
1.368,   3.458e-4
1.370,   3.520e-4
1.372,   3.583e-4
1.374,   3.659e-4
1.376,   3.740e-4
1.378,   3.827e-4
1.380,   3.928e-4
1.382,   4.035e-4
1.384,   4.149e-4
1.386,   4.275e-4
1.388,   4.423e-4
1.390,   4.576e-4
1.392,   4.745e-4
1.394,   4.931e-4
1.396,   5.126e-4
1.398,   5.335e-4
1.400,   5.561e-4
1.402,   5.784e-4
1.404,   6.022e-4
1.406,   6.265e-4
1.408,   6.533e-4
1.410,   6.762e-4
1.412,   7.041e-4
1.414,   7.331e-4
1.416,   7.633e-4
1.418,   7.946e-4
1.420,   8.270e-4
1.422,   8.610e-4
1.424,   8.967e-4
1.426,   9.335e-4
1.428,   9.699e-4
1.430,   1.008e-3
1.432,   1.047e-3
1.434,   1.087e-3
1.436,   1.128e-3
1.438,   1.156e-3
1.440,   1.192e-3
1.442,   1.237e-3
1.444,   1.284e-3
1.446,   1.333e-3
1.448,   1.383e-3
1.450,   1.433e-3
1.452,   1.484e-3
1.454,   1.535e-3
1.456,   1.584e-3
1.458,   1.632e-3
1.460,   1.677e-3
1.462,   1.723e-3
1.464,   1.765e-3
1.466,   1.806e-3
1.468,   1.851e-3
1.470,   1.893e-3
1.472,   1.939e-3
1.474,   1.987e-3
1.476,   2.037e-3
1.478,   2.090e-3
1.480,   2.146e-3
1.482,   2.205e-3
1.484,   2.270e-3
1.486,   2.334e-3
1.488,   2.381e-3
1.490,   2.448e-3
1.492,   2.517e-3
1.494,   2.590e-3
1.496,   2.665e-3
1.498,   2.741e-3
1.500,   2.810e-3
1.502,   2.870e-3
1.504,   2.951e-3
1.506,   3.034e-3
1.508,   3.116e-3
1.510,   3.201e-3
1.512,   3.273e-3
1.514,   3.326e-3
1.516,   3.411e-3
1.518,   3.422e-3
1.520,   3.498e-3
1.522,   3.581e-3
1.524,   3.661e-3
1.526,   3.721e-3
1.528,   3.796e-3
1.530,   3.867e-3
1.532,   3.932e-3
1.534,   4.005e-3
1.536,   4.086e-3
1.538,   4.161e-3
1.540,   4.193e-3
1.542,   4.264e-3
1.544,   4.339e-3
1.546,   4.415e-3
1.548,   4.485e-3
1.550,   4.561e-3
1.552,   4.623e-3
1.554,   4.694e-3
1.556,   4.770e-3
1.558,   4.839e-3
1.560,   4.908e-3
1.562,   4.991e-3
1.564,   5.058e-3