File: Experimental Records, Raw Data, and Supplementary Notes and Figures/batch4/final500/B4_BEST_500_#1_Full-175mV.txt
Mar. 28, 2023   11:34:48
Linear Sweep Voltammetry
File: d:\current work\al_oer\electrochemical test data\batch 4\500\B4_BEST_500_#1_Full-175mV.txt
Data Source:  Experiment
Instrument Model:  CHI660E
Header:
Note:

Init E (V) = 1.098

Final E (V) = 1.446

Scan Rate (V/s) = 0.010
Sample Interval (V) = 0.001
Quiet Time (sec) = 2
Sensitivity (A/V) = 0.001
Comp R (ohm) = 6.5

Results:

Channel 1:

Potential/V, Current/A
1.098,   4.341e-3
1.100,   3.649e-3
1.102,   3.106e-3
1.104,   2.787e-3
1.106,   2.433e-3
1.108,   2.165e-3
1.110,   1.921e-3
1.112,   1.751e-3
1.114,   1.510e-3
1.116,   1.442e-3
1.118,   1.291e-3
1.120,   1.213e-3
1.122,   1.146e-3
1.124,   1.061e-3
1.126,   9.855e-4
1.128,   9.341e-4
1.130,   8.816e-4
1.132,   8.301e-4
1.134,   8.241e-4
1.136,   7.817e-4
1.138,   7.763e-4
1.140,   7.471e-4
1.142,   7.021e-4
1.144,   6.779e-4
1.146,   6.669e-4
1.148,   6.395e-4
1.150,   6.086e-4
1.152,   6.309e-4
1.154,   6.061e-4
1.156,   5.892e-4
1.158,   5.781e-4
1.160,   5.725e-4
1.162,   5.560e-4
1.164,   5.533e-4
1.166,   5.550e-4
1.168,   5.330e-4
1.170,   5.297e-4
1.172,   5.334e-4
1.174,   5.314e-4
1.176,   5.250e-4
1.178,   5.226e-4
1.180,   5.162e-4
1.182,   5.275e-4
1.184,   5.190e-4
1.186,   5.075e-4
1.188,   5.102e-4
1.190,   5.045e-4
1.192,   4.978e-4
1.194,   5.017e-4
1.196,   4.996e-4
1.198,   5.066e-4
1.200,   4.996e-4
1.202,   5.049e-4
1.204,   4.976e-4
1.206,   4.916e-4
1.208,   4.963e-4
1.210,   4.969e-4
1.212,   5.113e-4
1.214,   5.153e-4
1.216,   5.155e-4
1.218,   5.173e-4
1.220,   4.992e-4
1.222,   5.012e-4
1.224,   4.955e-4
1.226,   5.045e-4
1.228,   4.999e-4
1.230,   5.099e-4
1.232,   5.121e-4
1.234,   5.022e-4
1.236,   5.133e-4
1.238,   5.206e-4
1.240,   5.105e-4
1.242,   5.248e-4
1.244,   5.252e-4
1.246,   5.016e-4
1.248,   5.282e-4
1.250,   5.270e-4
1.252,   5.180e-4
1.254,   5.114e-4
1.256,   5.216e-4
1.258,   5.089e-4
1.260,   5.130e-4
1.262,   5.275e-4
1.264,   5.283e-4
1.266,   5.420e-4
1.268,   5.245e-4
1.270,   5.272e-4
1.272,   5.211e-4
1.274,   5.272e-4
1.276,   5.358e-4
1.278,   5.348e-4
1.280,   5.426e-4
1.282,   5.370e-4
1.284,   5.443e-4
1.286,   5.432e-4
1.288,   5.605e-4
1.290,   5.604e-4
1.292,   5.737e-4
1.294,   5.571e-4
1.296,   5.545e-4
1.298,   5.659e-4
1.300,   5.686e-4
1.302,   5.709e-4
1.304,   5.813e-4
1.306,   5.639e-4
1.308,   5.598e-4
1.310,   6.061e-4
1.312,   5.873e-4
1.314,   5.925e-4
1.316,   5.923e-4
1.318,   5.806e-4
1.320,   6.255e-4
1.322,   5.916e-4
1.324,   5.939e-4
1.326,   5.831e-4
1.328,   5.992e-4
1.330,   6.078e-4
1.332,   6.055e-4
1.334,   6.280e-4
1.336,   6.369e-4
1.338,   6.221e-4
1.340,   6.334e-4
1.342,   6.333e-4
1.344,   6.359e-4
1.346,   6.462e-4
1.348,   6.682e-4
1.350,   6.673e-4
1.352,   7.032e-4
1.354,   6.813e-4
1.356,   7.110e-4
1.358,   7.158e-4
1.360,   7.075e-4
1.362,   7.323e-4
1.364,   7.400e-4
1.366,   7.577e-4
1.368,   7.593e-4
1.370,   7.954e-4
1.372,   8.110e-4
1.374,   8.363e-4
1.376,   8.596e-4
1.378,   8.898e-4
1.380,   9.232e-4
1.382,   9.603e-4
1.384,   9.897e-4
1.386,   1.076e-3
1.388,   1.124e-3
1.390,   1.161e-3
1.392,   1.225e-3
1.394,   1.266e-3
1.396,   1.355e-3
1.398,   1.446e-3
1.400,   1.551e-3
1.402,   1.675e-3
1.404,   1.837e-3
1.406,   1.963e-3
1.408,   2.116e-3
1.410,   2.308e-3
1.412,   2.510e-3
1.414,   2.754e-3
1.416,   2.956e-3
1.418,   3.204e-3
1.420,   3.476e-3
1.422,   3.815e-3
1.424,   4.145e-3
1.426,   4.551e-3
1.428,   4.904e-3
1.430,   5.358e-3
1.432,   5.782e-3
1.434,   6.216e-3
1.436,   6.720e-3
1.438,   7.420e-3
1.440,   8.035e-3
1.442,   8.717e-3
1.444,   9.473e-3
1.446,   1.002e-2