File: Experimental Records, Raw Data, and Supplementary Notes and Figures/batch4/final500/B4_BEST_500_#8_High_Quality(#24)-189mV.txt
Mar. 29, 2023   11:57:03
Linear Sweep Voltammetry
File: d:\current work\al_oer\electrochemical test data\batch 4\500\B4_BEST_500_#8_High_Quality(#24)-189mV.txt
Data Source:  Experiment
Instrument Model:  CHI660E
Header:
Note:

Init E (V) = 1.097

Final E (V) = 1.479

Scan Rate (V/s) = 0.010
Sample Interval (V) = 0.001
Quiet Time (sec) = 2
Sensitivity (A/V) = 0.001
Comp R (ohm) = 5.5

Results:

Channel 1:

Potential/V, Current/A
1.097,   1.282e-4
1.099,   1.511e-4
1.101,   1.407e-4
1.103,   1.325e-4
1.105,   1.266e-4
1.107,   1.218e-4
1.109,   1.181e-4
1.111,   1.150e-4
1.113,   1.124e-4
1.115,   1.109e-4
1.117,   1.093e-4
1.119,   1.078e-4
1.121,   1.067e-4
1.123,   1.062e-4
1.125,   1.055e-4
1.127,   1.048e-4
1.129,   1.044e-4
1.131,   1.045e-4
1.133,   1.042e-4
1.135,   1.038e-4
1.137,   1.038e-4
1.139,   1.040e-4
1.141,   1.042e-4
1.143,   1.043e-4
1.145,   1.043e-4
1.147,   1.049e-4
1.149,   1.051e-4
1.151,   1.052e-4
1.153,   1.053e-4
1.155,   1.061e-4
1.157,   1.067e-4
1.159,   1.066e-4
1.161,   1.072e-4
1.163,   1.079e-4
1.165,   1.085e-4
1.167,   1.088e-4
1.169,   1.095e-4
1.171,   1.102e-4
1.173,   1.106e-4
1.175,   1.111e-4
1.177,   1.115e-4
1.179,   1.125e-4
1.181,   1.133e-4
1.183,   1.136e-4
1.185,   1.143e-4
1.187,   1.153e-4
1.189,   1.160e-4
1.191,   1.165e-4
1.193,   1.173e-4
1.195,   1.185e-4
1.197,   1.190e-4
1.199,   1.194e-4
1.201,   1.204e-4
1.203,   1.214e-4
1.205,   1.223e-4
1.207,   1.230e-4
1.209,   1.233e-4
1.211,   1.250e-4
1.213,   1.255e-4
1.215,   1.261e-4
1.217,   1.271e-4
1.219,   1.281e-4
1.221,   1.291e-4
1.223,   1.297e-4
1.225,   1.305e-4
1.227,   1.317e-4
1.229,   1.327e-4
1.231,   1.332e-4
1.233,   1.345e-4
1.235,   1.352e-4
1.237,   1.361e-4
1.239,   1.368e-4
1.241,   1.374e-4
1.243,   1.386e-4
1.245,   1.397e-4
1.247,   1.401e-4
1.249,   1.411e-4
1.251,   1.419e-4
1.253,   1.430e-4
1.255,   1.434e-4
1.257,   1.443e-4
1.259,   1.458e-4
1.261,   1.464e-4
1.263,   1.471e-4
1.265,   1.478e-4
1.267,   1.492e-4
1.269,   1.500e-4
1.271,   1.510e-4
1.273,   1.516e-4
1.275,   1.531e-4
1.277,   1.541e-4
1.279,   1.549e-4
1.281,   1.558e-4
1.283,   1.572e-4
1.285,   1.584e-4
1.287,   1.592e-4
1.289,   1.603e-4
1.291,   1.623e-4
1.293,   1.634e-4
1.295,   1.642e-4
1.297,   1.659e-4
1.299,   1.674e-4
1.301,   1.691e-4
1.303,   1.704e-4
1.305,   1.717e-4
1.307,   1.738e-4
1.309,   1.758e-4
1.311,   1.772e-4
1.313,   1.788e-4
1.315,   1.812e-4
1.317,   1.834e-4
1.319,   1.852e-4
1.321,   1.873e-4
1.323,   1.910e-4
1.325,   1.928e-4
1.327,   1.951e-4
1.329,   1.980e-4
1.331,   2.012e-4
1.333,   2.043e-4
1.335,   2.078e-4
1.337,   2.106e-4
1.339,   2.152e-4
1.341,   2.193e-4
1.343,   2.233e-4
1.345,   2.278e-4
1.347,   2.331e-4
1.349,   2.386e-4
1.351,   2.439e-4
1.353,   2.500e-4
1.355,   2.570e-4
1.357,   2.639e-4
1.359,   2.710e-4
1.361,   2.798e-4
1.363,   2.884e-4
1.365,   2.981e-4
1.367,   3.083e-4
1.369,   3.197e-4
1.371,   3.326e-4
1.373,   3.465e-4
1.375,   3.611e-4
1.377,   3.781e-4
1.379,   3.975e-4
1.381,   4.187e-4
1.383,   4.421e-4
1.385,   4.687e-4
1.387,   5.001e-4
1.389,   5.337e-4
1.391,   5.726e-4
1.393,   6.169e-4
1.395,   6.675e-4
1.397,   7.242e-4
1.399,   7.890e-4
1.401,   8.612e-4
1.403,   9.395e-4
1.405,   1.027e-3
1.407,   1.125e-3
1.409,   1.232e-3
1.411,   1.340e-3
1.413,   1.466e-3
1.415,   1.604e-3
1.417,   1.753e-3
1.419,   1.914e-3
1.421,   2.089e-3
1.423,   2.265e-3
1.425,   2.457e-3
1.427,   2.657e-3
1.429,   2.876e-3
1.431,   3.091e-3
1.433,   3.303e-3
1.435,   3.529e-3
1.437,   3.739e-3
1.439,   3.979e-3
1.441,   4.195e-3
1.443,   4.420e-3
1.445,   4.659e-3
1.447,   4.893e-3
1.449,   5.145e-3
1.451,   5.411e-3
1.453,   5.656e-3
1.455,   5.929e-3
1.457,   6.199e-3
1.459,   6.559e-3
1.461,   6.898e-3
1.463,   7.164e-3
1.465,   7.571e-3
1.467,   7.901e-3
1.469,   8.227e-3
1.471,   8.581e-3
1.473,   8.874e-3
1.475,   9.593e-3
1.477,   9.870e-3
1.479,   1.006e-2