File: Experimental Records, Raw Data, and Supplementary Notes and Figures/batch4/final500/B4_BEST_500_#5_Full-203mV.txt
Mar. 28, 2023   12:18:00
Linear Sweep Voltammetry
File: d:\current work\al_oer\electrochemical test data\batch 4\500\B4_BEST_500_#5_Full-203mV.txt
Data Source:  Experiment
Instrument Model:  CHI660E
Header:
Note:

Init E (V) = 1.099

Final E (V) = 1.516

Scan Rate (V/s) = 0.010
Sample Interval (V) = 0.001
Quiet Time (sec) = 2
Sensitivity (A/V) = 0.001
Comp R (ohm) = 4.8

Results:

Channel 1:

Potential/V, Current/A
1.099,   9.317e-4
1.101,   8.285e-4
1.103,   7.427e-4
1.105,   6.726e-4
1.107,   6.160e-4
1.109,   5.698e-4
1.111,   5.298e-4
1.113,   4.953e-4
1.115,   4.661e-4
1.117,   4.401e-4
1.119,   4.173e-4
1.121,   3.991e-4
1.123,   3.807e-4
1.125,   3.649e-4
1.127,   3.511e-4
1.129,   3.376e-4
1.131,   3.264e-4
1.133,   3.159e-4
1.135,   3.055e-4
1.137,   2.964e-4
1.139,   2.884e-4
1.141,   2.804e-4
1.143,   2.737e-4
1.145,   2.671e-4
1.147,   2.613e-4
1.149,   2.560e-4
1.151,   2.510e-4
1.153,   2.463e-4
1.155,   2.418e-4
1.157,   2.376e-4
1.159,   2.339e-4
1.161,   2.299e-4
1.163,   2.264e-4
1.165,   2.246e-4
1.167,   2.217e-4
1.169,   2.190e-4
1.171,   2.169e-4
1.173,   2.146e-4
1.175,   2.127e-4
1.177,   2.103e-4
1.179,   2.088e-4
1.181,   2.072e-4
1.183,   2.052e-4
1.185,   2.046e-4
1.187,   2.029e-4
1.189,   2.011e-4
1.191,   1.999e-4
1.193,   1.991e-4
1.195,   1.979e-4
1.197,   1.969e-4
1.199,   1.959e-4
1.201,   1.954e-4
1.203,   1.943e-4
1.205,   1.938e-4
1.207,   1.932e-4
1.209,   1.930e-4
1.211,   1.923e-4
1.213,   1.921e-4
1.215,   1.915e-4
1.217,   1.912e-4
1.219,   1.911e-4
1.221,   1.907e-4
1.223,   1.908e-4
1.225,   1.907e-4
1.227,   1.906e-4
1.229,   1.909e-4
1.231,   1.910e-4
1.233,   1.912e-4
1.235,   1.912e-4
1.237,   1.910e-4
1.239,   1.910e-4
1.241,   1.912e-4
1.243,   1.909e-4
1.245,   1.913e-4
1.247,   1.911e-4
1.249,   1.913e-4
1.251,   1.912e-4
1.253,   1.918e-4
1.255,   1.919e-4
1.257,   1.927e-4
1.259,   1.926e-4
1.261,   1.925e-4
1.263,   1.927e-4
1.265,   1.931e-4
1.267,   1.935e-4
1.269,   1.942e-4
1.271,   1.945e-4
1.273,   1.945e-4
1.275,   1.954e-4
1.277,   1.963e-4
1.279,   1.969e-4
1.281,   1.976e-4
1.283,   1.977e-4
1.285,   1.980e-4
1.287,   1.986e-4
1.289,   1.989e-4
1.291,   1.994e-4
1.293,   2.006e-4
1.295,   2.011e-4
1.297,   2.017e-4
1.299,   2.028e-4
1.301,   2.037e-4
1.303,   2.044e-4
1.305,   2.056e-4
1.307,   2.067e-4
1.309,   2.074e-4
1.311,   2.083e-4
1.313,   2.095e-4
1.315,   2.109e-4
1.317,   2.125e-4
1.319,   2.138e-4
1.321,   2.150e-4
1.323,   2.165e-4
1.325,   2.185e-4
1.327,   2.200e-4
1.329,   2.219e-4
1.331,   2.234e-4
1.333,   2.253e-4
1.335,   2.272e-4
1.337,   2.295e-4
1.339,   2.319e-4
1.341,   2.343e-4
1.343,   2.370e-4
1.345,   2.397e-4
1.347,   2.426e-4
1.349,   2.461e-4
1.351,   2.496e-4
1.353,   2.533e-4
1.355,   2.570e-4
1.357,   2.612e-4
1.359,   2.658e-4
1.361,   2.705e-4
1.363,   2.760e-4
1.365,   2.816e-4
1.367,   2.882e-4
1.369,   2.946e-4
1.371,   3.019e-4
1.373,   3.099e-4
1.375,   3.188e-4
1.377,   3.288e-4
1.379,   3.395e-4
1.381,   3.514e-4
1.383,   3.650e-4
1.385,   3.793e-4
1.387,   3.957e-4
1.389,   4.145e-4
1.391,   4.349e-4
1.393,   4.579e-4
1.395,   4.837e-4
1.397,   5.125e-4
1.399,   5.449e-4
1.401,   5.815e-4
1.403,   6.217e-4
1.405,   6.672e-4
1.407,   7.176e-4
1.409,   7.727e-4
1.411,   8.313e-4
1.413,   8.974e-4
1.415,   9.691e-4
1.417,   1.047e-3
1.419,   1.129e-3
1.421,   1.220e-3
1.423,   1.316e-3
1.425,   1.421e-3
1.427,   1.530e-3
1.429,   1.648e-3
1.431,   1.773e-3
1.433,   1.907e-3
1.435,   2.048e-3
1.437,   2.198e-3
1.439,   2.347e-3
1.441,   2.510e-3
1.443,   2.677e-3
1.445,   2.857e-3
1.447,   3.041e-3
1.449,   3.232e-3
1.451,   3.429e-3
1.453,   3.630e-3
1.455,   3.838e-3
1.457,   4.053e-3
1.459,   4.277e-3
1.461,   4.500e-3
1.463,   4.739e-3
1.465,   4.980e-3
1.467,   5.221e-3
1.469,   5.482e-3
1.471,   5.730e-3
1.473,   5.999e-3
1.475,   6.301e-3
1.477,   6.550e-3
1.479,   6.804e-3
1.481,   7.101e-3
1.483,   7.371e-3
1.485,   7.650e-3
1.487,   7.887e-3
1.489,   8.112e-3
1.491,   8.368e-3
1.493,   8.610e-3
1.495,   8.821e-3
1.497,   9.013e-3
1.499,   9.319e-3
1.501,   9.577e-3
1.503,   9.826e-3
1.505,   9.990e-3
1.507,   1.006e-2
1.509,   1.006e-2
1.511,   1.006e-2
1.513,   1.006e-2
1.515,   1.006e-2
1.516,   1.006e-2