File: Experimental Records, Raw Data, and Supplementary Notes and Figures/batch4/final500/B4_VARIANCE_500_#5_Full(#13)-295mV.txt
Mar. 29, 2023   12:39:07
Linear Sweep Voltammetry
File: d:\current work\al_oer\electrochemical test data\batch 4\500\B4_VARIANCE_500_#5_Full(#13)-295mV.txt
Data Source:  Experiment
Instrument Model:  CHI660E
Header:
Note:

Init E (V) = 1.083

Final E (V) = 1.533

Scan Rate (V/s) = 0.010
Sample Interval (V) = 0.001
Quiet Time (sec) = 2
Sensitivity (A/V) = 0.001
Comp R (ohm) = 5.2

Results:

Channel 1:

Potential/V, Current/A
1.083,   3.501e-5
1.085,   3.272e-5
1.087,   2.940e-5
1.089,   2.674e-5
1.091,   2.464e-5
1.093,   2.288e-5
1.095,   2.140e-5
1.097,   2.022e-5
1.099,   1.914e-5
1.101,   1.831e-5
1.103,   1.757e-5
1.105,   1.688e-5
1.107,   1.632e-5
1.109,   1.586e-5
1.111,   1.540e-5
1.113,   1.504e-5
1.115,   1.468e-5
1.117,   1.442e-5
1.119,   1.415e-5
1.121,   1.386e-5
1.123,   1.369e-5
1.125,   1.352e-5
1.127,   1.336e-5
1.129,   1.324e-5
1.131,   1.306e-5
1.133,   1.299e-5
1.135,   1.288e-5
1.137,   1.277e-5
1.139,   1.270e-5
1.141,   1.266e-5
1.143,   1.261e-5
1.145,   1.258e-5
1.147,   1.250e-5
1.149,   1.253e-5
1.151,   1.247e-5
1.153,   1.243e-5
1.155,   1.246e-5
1.157,   1.248e-5
1.159,   1.242e-5
1.161,   1.245e-5
1.163,   1.245e-5
1.165,   1.253e-5
1.167,   1.254e-5
1.169,   1.252e-5
1.171,   1.256e-5
1.173,   1.263e-5
1.175,   1.262e-5
1.177,   1.266e-5
1.179,   1.272e-5
1.181,   1.277e-5
1.183,   1.279e-5
1.185,   1.284e-5
1.187,   1.293e-5
1.189,   1.298e-5
1.191,   1.302e-5
1.193,   1.309e-5
1.195,   1.315e-5
1.197,   1.325e-5
1.199,   1.331e-5
1.201,   1.338e-5
1.203,   1.345e-5
1.205,   1.357e-5
1.207,   1.366e-5
1.209,   1.374e-5
1.211,   1.379e-5
1.213,   1.394e-5
1.215,   1.404e-5
1.217,   1.412e-5
1.219,   1.429e-5
1.221,   1.439e-5
1.223,   1.453e-5
1.225,   1.465e-5
1.227,   1.476e-5
1.229,   1.494e-5
1.231,   1.510e-5
1.233,   1.524e-5
1.235,   1.542e-5
1.237,   1.561e-5
1.239,   1.579e-5
1.241,   1.598e-5
1.243,   1.615e-5
1.245,   1.640e-5
1.247,   1.658e-5
1.249,   1.676e-5
1.251,   1.700e-5
1.253,   1.724e-5
1.255,   1.749e-5
1.257,   1.773e-5
1.259,   1.797e-5
1.261,   1.826e-5
1.263,   1.852e-5
1.265,   1.876e-5
1.267,   1.905e-5
1.269,   1.934e-5
1.271,   1.964e-5
1.273,   1.994e-5
1.275,   2.022e-5
1.277,   2.057e-5
1.279,   2.088e-5
1.281,   2.114e-5
1.283,   2.148e-5
1.285,   2.180e-5
1.287,   2.213e-5
1.289,   2.248e-5
1.291,   2.278e-5
1.293,   2.316e-5
1.295,   2.348e-5
1.297,   2.377e-5
1.299,   2.417e-5
1.301,   2.451e-5
1.303,   2.488e-5
1.305,   2.520e-5
1.307,   2.558e-5
1.309,   2.598e-5
1.311,   2.631e-5
1.313,   2.665e-5
1.315,   2.699e-5
1.317,   2.736e-5
1.319,   2.774e-5
1.321,   2.813e-5
1.323,   2.846e-5
1.325,   2.883e-5
1.327,   2.923e-5
1.329,   2.957e-5
1.331,   2.994e-5
1.333,   3.032e-5
1.335,   3.074e-5
1.337,   3.109e-5
1.339,   3.147e-5
1.341,   3.184e-5
1.343,   3.221e-5
1.345,   3.261e-5
1.347,   3.303e-5
1.349,   3.344e-5
1.351,   3.388e-5
1.353,   3.434e-5
1.355,   3.470e-5
1.357,   3.526e-5
1.359,   3.565e-5
1.361,   3.612e-5
1.363,   3.663e-5
1.365,   3.718e-5
1.367,   3.764e-5
1.369,   3.813e-5
1.371,   3.880e-5
1.373,   3.950e-5
1.375,   4.015e-5
1.377,   4.093e-5
1.379,   4.180e-5
1.381,   4.276e-5
1.383,   4.367e-5
1.385,   4.488e-5
1.387,   4.603e-5
1.389,   4.747e-5
1.391,   4.898e-5
1.393,   5.057e-5
1.395,   5.246e-5
1.397,   5.450e-5
1.399,   5.678e-5
1.401,   5.924e-5
1.403,   6.208e-5
1.405,   6.519e-5
1.407,   6.852e-5
1.409,   7.226e-5
1.411,   7.657e-5
1.413,   8.129e-5
1.415,   8.621e-5
1.417,   9.183e-5
1.419,   9.788e-5
1.421,   1.046e-4
1.423,   1.119e-4
1.425,   1.200e-4
1.427,   1.287e-4
1.429,   1.383e-4
1.431,   1.488e-4
1.433,   1.601e-4
1.435,   1.724e-4
1.437,   1.858e-4
1.439,   2.000e-4
1.441,   2.155e-4
1.443,   2.321e-4
1.445,   2.501e-4
1.447,   2.693e-4
1.449,   2.898e-4
1.451,   3.118e-4
1.453,   3.351e-4
1.455,   3.596e-4
1.457,   3.858e-4
1.459,   4.134e-4
1.461,   4.425e-4
1.463,   4.733e-4
1.465,   5.058e-4
1.467,   5.391e-4
1.469,   5.740e-4
1.471,   6.100e-4
1.473,   6.473e-4
1.475,   6.857e-4
1.477,   7.252e-4
1.479,   7.647e-4
1.481,   8.059e-4
1.483,   8.479e-4
1.485,   8.902e-4
1.487,   9.335e-4
1.489,   9.785e-4
1.491,   1.023e-3
1.493,   1.070e-3
1.495,   1.118e-3
1.497,   1.168e-3
1.499,   1.215e-3
1.501,   1.266e-3
1.503,   1.320e-3
1.505,   1.371e-3
1.507,   1.423e-3
1.509,   1.476e-3
1.511,   1.531e-3
1.513,   1.587e-3
1.515,   1.644e-3
1.517,   1.701e-3
1.519,   1.762e-3
1.521,   1.820e-3
1.523,   1.877e-3
1.525,   1.948e-3
1.527,   2.004e-3
1.529,   2.073e-3
1.531,   2.132e-3
1.533,   2.201e-3