File: Experimental Records, Raw Data, and Supplementary Notes and Figures/batch4/final500/B4_VARIANCE_500_#3_High_Quality(#27)-248mV.txt
Mar. 28, 2023   12:50:10
Linear Sweep Voltammetry
File: d:\current work\al_oer\electrochemical test data\batch 4\500\B4_VARIANCE_500_#3_High_Quality(#27)-248mV.txt
Data Source:  Experiment
Instrument Model:  CHI660E
Header:
Note:

Init E (V) = 1.084

Final E (V) = 1.525

Scan Rate (V/s) = 0.010
Sample Interval (V) = 0.001
Quiet Time (sec) = 2
Sensitivity (A/V) = 0.001
Comp R (ohm) = 5.0

Results:

Channel 1:

Potential/V, Current/A
1.084,   3.490e-5
1.086,   3.188e-5
1.088,   2.876e-5
1.090,   2.643e-5
1.092,   2.451e-5
1.094,   2.304e-5
1.096,   2.174e-5
1.098,   2.081e-5
1.100,   1.993e-5
1.102,   1.913e-5
1.104,   1.846e-5
1.106,   1.794e-5
1.108,   1.745e-5
1.110,   1.701e-5
1.112,   1.666e-5
1.114,   1.637e-5
1.116,   1.608e-5
1.118,   1.585e-5
1.120,   1.557e-5
1.122,   1.538e-5
1.124,   1.521e-5
1.126,   1.503e-5
1.128,   1.487e-5
1.130,   1.473e-5
1.132,   1.464e-5
1.134,   1.453e-5
1.136,   1.446e-5
1.138,   1.440e-5
1.140,   1.433e-5
1.142,   1.430e-5
1.144,   1.425e-5
1.146,   1.426e-5
1.148,   1.421e-5
1.150,   1.420e-5
1.152,   1.415e-5
1.154,   1.417e-5
1.156,   1.418e-5
1.158,   1.423e-5
1.160,   1.421e-5
1.162,   1.427e-5
1.164,   1.428e-5
1.166,   1.436e-5
1.168,   1.440e-5
1.170,   1.440e-5
1.172,   1.451e-5
1.174,   1.455e-5
1.176,   1.461e-5
1.178,   1.465e-5
1.180,   1.472e-5
1.182,   1.481e-5
1.184,   1.488e-5
1.186,   1.492e-5
1.188,   1.502e-5
1.190,   1.512e-5
1.192,   1.520e-5
1.194,   1.530e-5
1.196,   1.540e-5
1.198,   1.554e-5
1.200,   1.558e-5
1.202,   1.565e-5
1.204,   1.584e-5
1.206,   1.598e-5
1.208,   1.610e-5
1.210,   1.623e-5
1.212,   1.635e-5
1.214,   1.650e-5
1.216,   1.662e-5
1.218,   1.673e-5
1.220,   1.690e-5
1.222,   1.698e-5
1.224,   1.713e-5
1.226,   1.730e-5
1.228,   1.741e-5
1.230,   1.761e-5
1.232,   1.776e-5
1.234,   1.789e-5
1.236,   1.802e-5
1.238,   1.814e-5
1.240,   1.831e-5
1.242,   1.843e-5
1.244,   1.861e-5
1.246,   1.872e-5
1.248,   1.888e-5
1.250,   1.906e-5
1.252,   1.925e-5
1.254,   1.941e-5
1.256,   1.966e-5
1.258,   1.984e-5
1.260,   2.001e-5
1.262,   2.029e-5
1.264,   2.045e-5
1.266,   2.065e-5
1.268,   2.085e-5
1.270,   2.104e-5
1.272,   2.127e-5
1.274,   2.145e-5
1.276,   2.168e-5
1.278,   2.194e-5
1.280,   2.223e-5
1.282,   2.252e-5
1.284,   2.280e-5
1.286,   2.319e-5
1.288,   2.350e-5
1.290,   2.373e-5
1.292,   2.406e-5
1.294,   2.446e-5
1.296,   2.468e-5
1.298,   2.503e-5
1.300,   2.539e-5
1.302,   2.576e-5
1.304,   2.618e-5
1.306,   2.659e-5
1.308,   2.697e-5
1.310,   2.743e-5
1.312,   2.787e-5
1.314,   2.832e-5
1.316,   2.876e-5
1.318,   2.922e-5
1.320,   2.976e-5
1.322,   3.026e-5
1.324,   3.086e-5
1.326,   3.147e-5
1.328,   3.215e-5
1.330,   3.277e-5
1.332,   3.346e-5
1.334,   3.423e-5
1.336,   3.500e-5
1.338,   3.585e-5
1.340,   3.687e-5
1.342,   3.777e-5
1.344,   3.869e-5
1.346,   3.978e-5
1.348,   4.102e-5
1.350,   4.210e-5
1.352,   4.343e-5
1.354,   4.485e-5
1.356,   4.643e-5
1.358,   4.836e-5
1.360,   5.049e-5
1.362,   5.267e-5
1.364,   5.485e-5
1.366,   5.720e-5
1.368,   5.996e-5
1.370,   6.321e-5
1.372,   6.681e-5
1.374,   7.098e-5
1.376,   7.563e-5
1.378,   8.104e-5
1.380,   8.713e-5
1.382,   9.421e-5
1.384,   1.025e-4
1.386,   1.123e-4
1.388,   1.236e-4
1.390,   1.370e-4
1.392,   1.525e-4
1.394,   1.697e-4
1.396,   1.886e-4
1.398,   2.080e-4
1.400,   2.273e-4
1.402,   2.453e-4
1.404,   2.605e-4
1.406,   2.722e-4
1.408,   2.812e-4
1.410,   2.896e-4
1.412,   2.991e-4
1.414,   3.122e-4
1.416,   3.293e-4
1.418,   3.495e-4
1.420,   3.733e-4
1.422,   4.015e-4
1.424,   4.336e-4
1.426,   4.690e-4
1.428,   5.053e-4
1.430,   5.440e-4
1.432,   5.874e-4
1.434,   6.317e-4
1.436,   6.769e-4
1.438,   7.293e-4
1.440,   7.828e-4
1.442,   8.386e-4
1.444,   8.926e-4
1.446,   9.470e-4
1.448,   1.005e-3
1.450,   1.065e-3
1.452,   1.128e-3
1.454,   1.185e-3
1.456,   1.245e-3
1.458,   1.308e-3
1.460,   1.369e-3
1.462,   1.429e-3
1.464,   1.490e-3
1.466,   1.554e-3
1.468,   1.617e-3
1.470,   1.679e-3
1.472,   1.743e-3
1.474,   1.803e-3
1.476,   1.866e-3
1.478,   1.928e-3
1.480,   1.983e-3
1.482,   2.031e-3
1.484,   2.080e-3
1.486,   2.119e-3
1.488,   2.159e-3
1.490,   2.195e-3
1.492,   2.231e-3
1.494,   2.269e-3
1.496,   2.304e-3
1.498,   2.336e-3
1.500,   2.368e-3
1.502,   2.392e-3
1.504,   2.419e-3
1.506,   2.441e-3
1.508,   2.462e-3
1.510,   2.480e-3
1.512,   2.493e-3
1.514,   2.505e-3
1.516,   2.515e-3
1.518,   2.520e-3
1.520,   2.526e-3
1.522,   2.530e-3
1.524,   2.533e-3
1.525,   2.534e-3