File: Experimental Records, Raw Data, and Supplementary Notes and Figures/batch4/final500/B4_VARIANCE_500_#6_Full(#14)-375mV.txt
Mar. 29, 2023   12:24:19
Linear Sweep Voltammetry
File: d:\current work\al_oer\electrochemical test data\batch 4\500\B4_VARIANCE_500_#6_Full(#14)-375mV.txt
Data Source:  Experiment
Instrument Model:  CHI660E
Header:
Note:

Init E (V) = 1.084

Final E (V) = 1.607

Scan Rate (V/s) = 0.010
Sample Interval (V) = 0.001
Quiet Time (sec) = 2
Sensitivity (A/V) = 0.001
Comp R (ohm) = 5.4

Results:

Channel 1:

Potential/V, Current/A
1.084,   9.743E-05
1.086,   9.140E-05
1.088,   8.475E-05
1.09,   8.030E-05
1.092,   7.598E-05
1.094,   7.236E-05
1.096,   6.968E-05
1.098,   6.706E-05
1.1,   6.520E-05
1.102,   6.284E-05
1.104,   6.088E-05
1.106,   5.954E-05
1.108,   5.786E-05
1.11,   5.697E-05
1.112,   5.517E-05
1.114,   5.453E-05
1.116,   5.337E-05
1.118,   5.261E-05
1.12,   5.261E-05
1.122,   5.189E-05
1.124,   5.105E-05
1.126,   5.001E-05
1.128,   4.989E-05
1.13,   4.910E-05
1.132,   4.888E-05
1.134,   4.881E-05
1.136,   4.864E-05
1.138,   4.810E-05
1.14,   4.781E-05
1.142,   4.767E-05
1.144,   4.731E-05
1.146,   4.681E-05
1.148,   4.648E-05
1.15,   4.661E-05
1.152,   4.624E-05
1.154,   4.624E-05
1.156,   4.629E-05
1.158,   4.597E-05
1.16,   4.639E-05
1.162,   4.613E-05
1.164,   4.581E-05
1.166,   4.597E-05
1.168,   4.605E-05
1.17,   4.557E-05
1.172,   4.558E-05
1.174,   4.555E-05
1.176,   4.558E-05
1.178,   4.549E-05
1.18,   4.519E-05
1.182,   4.556E-05
1.184,   4.556E-05
1.186,   4.535E-05
1.188,   4.564E-05
1.19,   4.590E-05
1.192,   4.588E-05
1.194,   4.595E-05
1.196,   4.609E-05
1.198,   4.596E-05
1.2,   4.580E-05
1.202,   4.612E-05
1.204,   4.639E-05
1.206,   4.673E-05
1.208,   4.665E-05
1.21,   4.646E-05
1.212,   4.636E-05
1.214,   4.689E-05
1.216,   4.684E-05
1.218,   4.704E-05
1.22,   4.718E-05
1.222,   4.730E-05
1.224,   4.727E-05
1.226,   4.745E-05
1.228,   4.767E-05
1.23,   4.805E-05
1.232,   4.817E-05
1.234,   4.810E-05
1.236,   4.846E-05
1.238,   4.869E-05
1.24,   4.847E-05
1.242,   4.888E-05
1.244,   4.890E-05
1.246,   4.944E-05
1.248,   4.960E-05
1.25,   4.959E-05
1.252,   5.006E-05
1.254,   5.009E-05
1.256,   5.042E-05
1.258,   5.083E-05
1.26,   5.158E-05
1.262,   5.129E-05
1.264,   5.154E-05
1.266,   5.171E-05
1.268,   5.170E-05
1.27,   5.242E-05
1.272,   5.227E-05
1.274,   5.274E-05
1.276,   5.301E-05
1.278,   5.360E-05
1.28,   5.475E-05
1.282,   5.430E-05
1.284,   5.517E-05
1.286,   5.573E-05
1.288,   5.602E-05
1.29,   5.634E-05
1.292,   5.678E-05
1.294,   5.805E-05
1.296,   5.785E-05
1.298,   5.816E-05
1.3,   5.882E-05
1.302,   5.924E-05
1.304,   5.973E-05
1.306,   6.012E-05
1.308,   6.083E-05
1.31,   6.153E-05
1.312,   6.247E-05
1.314,   6.204E-05
1.316,   6.258E-05
1.318,   6.348E-05
1.32,   6.392E-05
1.322,   6.409E-05
1.324,   6.467E-05
1.326,   6.537E-05
1.328,   6.550E-05
1.33,   6.763E-05
1.332,   6.909E-05
1.334,   6.882E-05
1.336,   6.887E-05
1.338,   6.952E-05
1.34,   7.031E-05
1.342,   7.069E-05
1.344,   7.179E-05
1.346,   7.233E-05
1.348,   7.349E-05
1.35,   7.377E-05
1.352,   7.516E-05
1.354,   7.587E-05
1.356,   7.640E-05
1.358,   7.712E-05
1.36,   7.866E-05
1.362,   7.958E-05
1.364,   8.069E-05
1.366,   8.194E-05
1.368,   8.277E-05
1.37,   8.372E-05
1.372,   8.469E-05
1.374,   8.649E-05
1.376,   8.799E-05
1.378,   8.950E-05
1.38,   9.137E-05
1.382,   9.321E-05
1.384,   9.596E-05
1.386,   9.770E-05
1.388,   9.969E-05
1.39,   1.027E-04
1.392,   1.060E-04
1.394,   1.090E-04
1.396,   1.124E-04
1.398,   1.161E-04
1.4,   1.203E-04
1.402,   1.237E-04
1.404,   1.288E-04
1.406,   1.341E-04
1.408,   1.394E-04
1.41,   1.456E-04
1.412,   1.520E-04
1.414,   1.585E-04
1.416,   1.653E-04
1.418,   1.722E-04
1.42,   1.802E-04
1.422,   1.885E-04
1.424,   1.973E-04
1.426,   2.067E-04
1.428,   2.162E-04
1.43,   2.270E-04
1.432,   2.387E-04
1.434,   2.520E-04
1.436,   2.601E-04
1.438,   2.748E-04
1.44,   2.885E-04
1.442,   3.014E-04
1.444,   3.170E-04
1.446,   3.318E-04
1.448,   3.456E-04
1.45,   3.602E-04
1.452,   3.753E-04
1.454,   3.890E-04
1.456,   4.025E-04
1.458,   4.177E-04
1.46,   4.331E-04
1.462,   4.519E-04
1.464,   4.653E-04
1.466,   4.839E-04
1.468,   5.028E-04
1.47,   5.211E-04
1.472,   5.384E-04
1.474,   5.585E-04
1.476,   5.789E-04
1.478,   6.004E-04
1.48,   6.192E-04
1.482,   6.432E-04
1.484,   6.672E-04
1.486,   6.927E-04
1.488,   7.193E-04
1.49,   7.468E-04
1.492,   7.781E-04
1.494,   8.126E-04
1.496,   8.513E-04
1.498,   8.891E-04
1.5,   9.308E-04
1.502,   9.757E-04
1.504,   1.017E-03
1.506,   1.058E-03
1.508,   1.102E-03
1.51,   1.143E-03
1.512,   1.182E-03
1.514,   1.210E-03
1.516,   1.257E-03
1.518,   1.264E-03
1.52,   1.288E-03
1.522,   1.311E-03
1.524,   1.336E-03
1.526,   1.363E-03
1.528,   1.400E-03
1.53,   1.425E-03
1.532,   1.450E-03
1.534,   1.471E-03
1.536,   1.492E-03
1.538,   1.512E-03
1.54,   1.536E-03
1.542,   1.550E-03
1.544,   1.575E-03
1.546,   1.596E-03
1.548,   1.621E-03
1.55,   1.636E-03
1.552,   1.651E-03
1.554,   1.662E-03
1.556,   1.684E-03
1.558,   1.704E-03
1.56,   1.725E-03
1.562,   1.739E-03
1.564,   1.751E-03
1.566,   1.770E-03
1.568,   1.781E-03
1.57,   1.798E-03
1.572,   1.823E-03
1.574,   1.840E-03
1.576,   1.849E-03
1.578,   1.856E-03
1.58,   1.870E-03
1.582,   1.899E-03
1.584,   1.900E-03
1.586,   1.898E-03
1.588,   1.906E-03
1.59,   1.922E-03
1.592,   1.925E-03
1.594,   1.916E-03
1.596,   1.953E-03
1.598,   1.949E-03
1.6,   1.962E-03
1.602,   1.968E-03
1.604,   1.972E-03
1.606,   1.982E-03
1.607,   1.982E-03