File: Experimental Records, Raw Data, and Supplementary Notes and Figures/batch4/final500/B4_VARIANCE_500_#1_High_Quality(#25)-246mV.txt
Mar. 29, 2023   12:11:54
Linear Sweep Voltammetry
File: d:\current work\al_oer\electrochemical test data\batch 4\500\B4_VARIANCE_500_#1_High_Quality(#25)-246mV.txt
Data Source:  Experiment
Instrument Model:  CHI660E
Header:
Note:

Init E (V) = 1.098

Final E (V) = 1.540

Scan Rate (V/s) = 0.010
Sample Interval (V) = 0.001
Quiet Time (sec) = 2
Sensitivity (A/V) = 0.001
Comp R (ohm) = 6.2

Results:

Channel 1:

Potential/V, Current/A
1.098,   1.159e-4
1.100,   1.127e-4
1.102,   1.024e-4
1.104,   9.371e-5
1.106,   8.741e-5
1.108,   8.196e-5
1.110,   7.738e-5
1.112,   7.352e-5
1.114,   7.022e-5
1.116,   6.736e-5
1.118,   6.560e-5
1.120,   6.323e-5
1.122,   6.135e-5
1.124,   5.993e-5
1.126,   5.853e-5
1.128,   5.701e-5
1.130,   5.592e-5
1.132,   5.521e-5
1.134,   5.440e-5
1.136,   5.330e-5
1.138,   5.266e-5
1.140,   5.203e-5
1.142,   5.182e-5
1.144,   5.119e-5
1.146,   5.059e-5
1.148,   5.007e-5
1.150,   4.996e-5
1.152,   4.952e-5
1.154,   4.929e-5
1.156,   4.915e-5
1.158,   4.895e-5
1.160,   4.869e-5
1.162,   4.846e-5
1.164,   4.855e-5
1.166,   4.820e-5
1.168,   4.818e-5
1.170,   4.816e-5
1.172,   4.804e-5
1.174,   4.802e-5
1.176,   4.792e-5
1.178,   4.784e-5
1.180,   4.774e-5
1.182,   4.781e-5
1.184,   4.770e-5
1.186,   4.755e-5
1.188,   4.763e-5
1.190,   4.746e-5
1.192,   4.768e-5
1.194,   4.755e-5
1.196,   4.767e-5
1.198,   4.741e-5
1.200,   4.749e-5
1.202,   4.737e-5
1.204,   4.731e-5
1.206,   4.746e-5
1.208,   4.735e-5
1.210,   4.713e-5
1.212,   4.696e-5
1.214,   4.741e-5
1.216,   4.711e-5
1.218,   4.693e-5
1.220,   4.700e-5
1.222,   4.686e-5
1.224,   4.667e-5
1.226,   4.675e-5
1.228,   4.671e-5
1.230,   4.661e-5
1.232,   4.656e-5
1.234,   4.656e-5
1.236,   4.640e-5
1.238,   4.621e-5
1.240,   4.626e-5
1.242,   4.617e-5
1.244,   4.610e-5
1.246,   4.604e-5
1.248,   4.605e-5
1.250,   4.584e-5
1.252,   4.574e-5
1.254,   4.593e-5
1.256,   4.565e-5
1.258,   4.549e-5
1.260,   4.560e-5
1.262,   4.546e-5
1.264,   4.526e-5
1.266,   4.544e-5
1.268,   4.550e-5
1.270,   4.532e-5
1.272,   4.530e-5
1.274,   4.516e-5
1.276,   4.530e-5
1.278,   4.531e-5
1.280,   4.512e-5
1.282,   4.530e-5
1.284,   4.534e-5
1.286,   4.523e-5
1.288,   4.527e-5
1.290,   4.519e-5
1.292,   4.540e-5
1.294,   4.543e-5
1.296,   4.532e-5
1.298,   4.552e-5
1.300,   4.558e-5
1.302,   4.571e-5
1.304,   4.566e-5
1.306,   4.591e-5
1.308,   4.586e-5
1.310,   4.641e-5
1.312,   4.620e-5
1.314,   4.633e-5
1.316,   4.660e-5
1.318,   4.683e-5
1.320,   4.685e-5
1.322,   4.704e-5
1.324,   4.755e-5
1.326,   4.757e-5
1.328,   4.781e-5
1.330,   4.800e-5
1.332,   4.831e-5
1.334,   4.853e-5
1.336,   4.887e-5
1.338,   4.934e-5
1.340,   4.960e-5
1.342,   5.006e-5
1.344,   5.023e-5
1.346,   5.035e-5
1.348,   5.129e-5
1.350,   5.158e-5
1.352,   5.192e-5
1.354,   5.239e-5
1.356,   5.312e-5
1.358,   5.365e-5
1.360,   5.403e-5
1.362,   5.466e-5
1.364,   5.589e-5
1.366,   5.622e-5
1.368,   5.694e-5
1.370,   5.758e-5
1.372,   5.864e-5
1.374,   5.952e-5
1.376,   6.078e-5
1.378,   6.172e-5
1.380,   6.246e-5
1.382,   6.472e-5
1.384,   6.681e-5
1.386,   6.784e-5
1.388,   6.853e-5
1.390,   7.047e-5
1.392,   7.264e-5
1.394,   7.524e-5
1.396,   7.829e-5
1.398,   8.154e-5
1.400,   8.531e-5
1.402,   8.915e-5
1.404,   9.398e-5
1.406,   9.921e-5
1.408,   1.050e-4
1.410,   1.117e-4
1.412,   1.193e-4
1.414,   1.279e-4
1.416,   1.372e-4
1.418,   1.477e-4
1.420,   1.600e-4
1.422,   1.733e-4
1.424,   1.879e-4
1.426,   2.042e-4
1.428,   2.236e-4
1.430,   2.443e-4
1.432,   2.673e-4
1.434,   2.956e-4
1.436,   3.221e-4
1.438,   3.536e-4
1.440,   3.883e-4
1.442,   4.267e-4
1.444,   4.689e-4
1.446,   5.180e-4
1.448,   5.676e-4
1.450,   6.238e-4
1.452,   6.847e-4
1.454,   7.528e-4
1.456,   8.219e-4
1.458,   8.995e-4
1.460,   9.848e-4
1.462,   1.073e-3
1.464,   1.167e-3
1.466,   1.265e-3
1.468,   1.377e-3
1.470,   1.499e-3
1.472,   1.630e-3
1.474,   1.768e-3
1.476,   1.917e-3
1.478,   2.064e-3
1.480,   2.236e-3
1.482,   2.418e-3
1.484,   2.599e-3
1.486,   2.779e-3
1.488,   2.960e-3
1.490,   3.180e-3
1.492,   3.409e-3
1.494,   3.645e-3
1.496,   3.891e-3
1.498,   4.123e-3
1.500,   4.376e-3
1.502,   4.642e-3
1.504,   4.902e-3
1.506,   5.184e-3
1.508,   5.552e-3
1.510,   5.891e-3
1.512,   6.140e-3
1.514,   6.484e-3
1.516,   6.829e-3
1.518,   7.187e-3
1.520,   7.675e-3
1.522,   7.907e-3
1.524,   8.315e-3
1.526,   8.651e-3
1.528,   9.103e-3
1.530,   9.547e-3
1.532,   1.003e-2
1.534,   1.006e-2
1.536,   1.006e-2
1.538,   1.006e-2
1.540,   1.006e-2