File: Experimental Records, Raw Data, and Supplementary Notes and Figures/batch4/final500/B4_VARIANCE_500_#4_High_Quality(#28)-277mV.txt
Mar. 28, 2023   11:43:00
Linear Sweep Voltammetry
File: d:\current work\al_oer\electrochemical test data\batch 4\500\B4_VARIANCE_500_#4_High_Quality(#28)-277mV.txt
Data Source:  Experiment
Instrument Model:  CHI660E
Header:
Note:

Init E (V) = 1.097

Final E (V) = 1.521

Scan Rate (V/s) = 0.010
Sample Interval (V) = 0.001
Quiet Time (sec) = 2
Sensitivity (A/V) = 0.001
Comp R (ohm) = 6.4

Results:

Channel 1:

Potential/V, Current/A
1.097,   1.184e-4
1.099,   1.025e-4
1.101,   8.949e-5
1.103,   7.927e-5
1.105,   7.128e-5
1.107,   6.482e-5
1.109,   5.944e-5
1.111,   5.503e-5
1.113,   5.131e-5
1.115,   4.825e-5
1.117,   4.553e-5
1.119,   4.328e-5
1.121,   4.127e-5
1.123,   3.957e-5
1.125,   3.806e-5
1.127,   3.686e-5
1.129,   3.570e-5
1.131,   3.471e-5
1.133,   3.383e-5
1.135,   3.298e-5
1.137,   3.226e-5
1.139,   3.160e-5
1.141,   3.104e-5
1.143,   3.055e-5
1.145,   3.007e-5
1.147,   2.972e-5
1.149,   2.936e-5
1.151,   2.905e-5
1.153,   2.879e-5
1.155,   2.851e-5
1.157,   2.833e-5
1.159,   2.807e-5
1.161,   2.793e-5
1.163,   2.777e-5
1.165,   2.767e-5
1.167,   2.757e-5
1.169,   2.752e-5
1.171,   2.747e-5
1.173,   2.739e-5
1.175,   2.730e-5
1.177,   2.729e-5
1.179,   2.729e-5
1.181,   2.728e-5
1.183,   2.732e-5
1.185,   2.734e-5
1.187,   2.738e-5
1.189,   2.745e-5
1.191,   2.744e-5
1.193,   2.748e-5
1.195,   2.757e-5
1.197,   2.760e-5
1.199,   2.768e-5
1.201,   2.773e-5
1.203,   2.787e-5
1.205,   2.794e-5
1.207,   2.803e-5
1.209,   2.814e-5
1.211,   2.827e-5
1.213,   2.837e-5
1.215,   2.844e-5
1.217,   2.858e-5
1.219,   2.864e-5
1.221,   2.879e-5
1.223,   2.892e-5
1.225,   2.897e-5
1.227,   2.914e-5
1.229,   2.926e-5
1.231,   2.934e-5
1.233,   2.949e-5
1.235,   2.961e-5
1.237,   2.972e-5
1.239,   2.980e-5
1.241,   2.992e-5
1.243,   3.006e-5
1.245,   3.020e-5
1.247,   3.036e-5
1.249,   3.048e-5
1.251,   3.063e-5
1.253,   3.081e-5
1.255,   3.090e-5
1.257,   3.107e-5
1.259,   3.121e-5
1.261,   3.135e-5
1.263,   3.147e-5
1.265,   3.166e-5
1.267,   3.187e-5
1.269,   3.201e-5
1.271,   3.214e-5
1.273,   3.234e-5
1.275,   3.255e-5
1.277,   3.273e-5
1.279,   3.287e-5
1.281,   3.311e-5
1.283,   3.334e-5
1.285,   3.357e-5
1.287,   3.383e-5
1.289,   3.398e-5
1.291,   3.424e-5
1.293,   3.439e-5
1.295,   3.460e-5
1.297,   3.483e-5
1.299,   3.510e-5
1.301,   3.535e-5
1.303,   3.563e-5
1.305,   3.588e-5
1.307,   3.620e-5
1.309,   3.651e-5
1.311,   3.676e-5
1.313,   3.708e-5
1.315,   3.747e-5
1.317,   3.779e-5
1.319,   3.813e-5
1.321,   3.850e-5
1.323,   3.907e-5
1.325,   3.945e-5
1.327,   3.985e-5
1.329,   4.028e-5
1.331,   4.082e-5
1.333,   4.110e-5
1.335,   4.159e-5
1.337,   4.207e-5
1.339,   4.265e-5
1.341,   4.327e-5
1.343,   4.396e-5
1.345,   4.458e-5
1.347,   4.533e-5
1.349,   4.610e-5
1.351,   4.677e-5
1.353,   4.748e-5
1.355,   4.846e-5
1.357,   4.928e-5
1.359,   5.025e-5
1.361,   5.137e-5
1.363,   5.253e-5
1.365,   5.377e-5
1.367,   5.499e-5
1.369,   5.636e-5
1.371,   5.783e-5
1.373,   5.949e-5
1.375,   6.134e-5
1.377,   6.326e-5
1.379,   6.543e-5
1.381,   6.790e-5
1.383,   7.046e-5
1.385,   7.329e-5
1.387,   7.677e-5
1.389,   8.050e-5
1.391,   8.462e-5
1.393,   8.913e-5
1.395,   9.424e-5
1.397,   9.989e-5
1.399,   1.060e-4
1.401,   1.129e-4
1.403,   1.206e-4
1.405,   1.291e-4
1.407,   1.384e-4
1.409,   1.486e-4
1.411,   1.598e-4
1.413,   1.718e-4
1.415,   1.850e-4
1.417,   1.992e-4
1.419,   2.147e-4
1.421,   2.313e-4
1.423,   2.492e-4
1.425,   2.684e-4
1.427,   2.890e-4
1.429,   3.110e-4
1.431,   3.340e-4
1.433,   3.585e-4
1.435,   3.844e-4
1.437,   4.120e-4
1.439,   4.414e-4
1.441,   4.713e-4
1.443,   5.035e-4
1.445,   5.365e-4
1.447,   5.714e-4
1.449,   6.070e-4
1.451,   6.448e-4
1.453,   6.832e-4
1.455,   7.230e-4
1.457,   7.638e-4
1.459,   8.066e-4
1.461,   8.495e-4
1.463,   8.940e-4
1.465,   9.394e-4
1.467,   9.851e-4
1.469,   1.032e-3
1.471,   1.079e-3
1.473,   1.127e-3
1.475,   1.175e-3
1.477,   1.224e-3
1.479,   1.272e-3
1.481,   1.320e-3
1.483,   1.371e-3
1.485,   1.421e-3
1.487,   1.469e-3
1.489,   1.517e-3
1.491,   1.566e-3
1.493,   1.615e-3
1.495,   1.662e-3
1.497,   1.710e-3
1.499,   1.753e-3
1.501,   1.797e-3
1.503,   1.842e-3
1.505,   1.890e-3
1.507,   1.933e-3
1.509,   1.973e-3
1.511,   2.013e-3
1.513,   2.050e-3
1.515,   2.087e-3
1.517,   2.128e-3
1.519,   2.163e-3
1.521,   2.197e-3