File: Experimental Records, Raw Data, and Supplementary Notes and Figures/batch4/final500/B4_VARIANCE_500_#2_High_Quality(#26)-230mV.txt
Mar. 29, 2023   11:44:08
Linear Sweep Voltammetry
File: d:\current work\al_oer\electrochemical test data\batch 4\500\B4_VARIANCE_500_#2_High_Quality(#26)-230mV.txt
Data Source:  Experiment
Instrument Model:  CHI660E
Header:
Note:

Init E (V) = 1.120

Final E (V) = 1.508

Scan Rate (V/s) = 0.010
Sample Interval (V) = 0.001
Quiet Time (sec) = 2
Sensitivity (A/V) = 0.001
Comp R (ohm) = 6.0

Results:

Channel 1:

Potential/V, Current/A
1.120,   5.966e-4
1.122,   5.070e-4
1.124,   4.277e-4
1.126,   3.692e-4
1.128,   3.252e-4
1.130,   2.889e-4
1.132,   2.612e-4
1.134,   2.404e-4
1.136,   2.230e-4
1.138,   2.097e-4
1.140,   1.971e-4
1.142,   1.877e-4
1.144,   1.798e-4
1.146,   1.727e-4
1.148,   1.666e-4
1.150,   1.616e-4
1.152,   1.576e-4
1.154,   1.540e-4
1.156,   1.508e-4
1.158,   1.476e-4
1.160,   1.450e-4
1.162,   1.423e-4
1.164,   1.402e-4
1.166,   1.389e-4
1.168,   1.379e-4
1.170,   1.369e-4
1.172,   1.355e-4
1.174,   1.345e-4
1.176,   1.337e-4
1.178,   1.330e-4
1.180,   1.326e-4
1.182,   1.321e-4
1.184,   1.315e-4
1.186,   1.316e-4
1.188,   1.308e-4
1.190,   1.307e-4
1.192,   1.310e-4
1.194,   1.308e-4
1.196,   1.307e-4
1.198,   1.307e-4
1.200,   1.306e-4
1.202,   1.309e-4
1.204,   1.310e-4
1.206,   1.312e-4
1.208,   1.312e-4
1.210,   1.317e-4
1.212,   1.321e-4
1.214,   1.321e-4
1.216,   1.323e-4
1.218,   1.330e-4
1.220,   1.333e-4
1.222,   1.335e-4
1.224,   1.337e-4
1.226,   1.344e-4
1.228,   1.348e-4
1.230,   1.350e-4
1.232,   1.352e-4
1.234,   1.356e-4
1.236,   1.359e-4
1.238,   1.359e-4
1.240,   1.361e-4
1.242,   1.367e-4
1.244,   1.371e-4
1.246,   1.371e-4
1.248,   1.374e-4
1.250,   1.380e-4
1.252,   1.380e-4
1.254,   1.381e-4
1.256,   1.384e-4
1.258,   1.385e-4
1.260,   1.387e-4
1.262,   1.387e-4
1.264,   1.386e-4
1.266,   1.390e-4
1.268,   1.388e-4
1.270,   1.389e-4
1.272,   1.388e-4
1.274,   1.391e-4
1.276,   1.390e-4
1.278,   1.388e-4
1.280,   1.385e-4
1.282,   1.390e-4
1.284,   1.387e-4
1.286,   1.382e-4
1.288,   1.384e-4
1.290,   1.383e-4
1.292,   1.383e-4
1.294,   1.383e-4
1.296,   1.379e-4
1.298,   1.379e-4
1.300,   1.379e-4
1.302,   1.375e-4
1.304,   1.375e-4
1.306,   1.375e-4
1.308,   1.375e-4
1.310,   1.372e-4
1.312,   1.373e-4
1.314,   1.377e-4
1.316,   1.376e-4
1.318,   1.374e-4
1.320,   1.378e-4
1.322,   1.380e-4
1.324,   1.380e-4
1.326,   1.381e-4
1.328,   1.382e-4
1.330,   1.387e-4
1.332,   1.390e-4
1.334,   1.392e-4
1.336,   1.394e-4
1.338,   1.400e-4
1.340,   1.403e-4
1.342,   1.407e-4
1.344,   1.410e-4
1.346,   1.423e-4
1.348,   1.425e-4
1.350,   1.431e-4
1.352,   1.439e-4
1.354,   1.449e-4
1.356,   1.456e-4
1.358,   1.466e-4
1.360,   1.473e-4
1.362,   1.487e-4
1.364,   1.499e-4
1.366,   1.509e-4
1.368,   1.523e-4
1.370,   1.539e-4
1.372,   1.554e-4
1.374,   1.569e-4
1.376,   1.584e-4
1.378,   1.615e-4
1.380,   1.631e-4
1.382,   1.664e-4
1.384,   1.694e-4
1.386,   1.719e-4
1.388,   1.743e-4
1.390,   1.783e-4
1.392,   1.822e-4
1.394,   1.876e-4
1.396,   1.922e-4
1.398,   1.998e-4
1.400,   2.067e-4
1.402,   2.140e-4
1.404,   2.221e-4
1.406,   2.327e-4
1.408,   2.436e-4
1.410,   2.574e-4
1.412,   2.712e-4
1.414,   2.870e-4
1.416,   3.093e-4
1.418,   3.277e-4
1.420,   3.521e-4
1.422,   3.835e-4
1.424,   4.147e-4
1.426,   4.496e-4
1.428,   4.844e-4
1.430,   5.296e-4
1.432,   5.796e-4
1.434,   6.262e-4
1.436,   6.817e-4
1.438,   7.434e-4
1.440,   8.119e-4
1.442,   8.874e-4
1.444,   9.653e-4
1.446,   1.054e-3
1.448,   1.147e-3
1.450,   1.256e-3
1.452,   1.368e-3
1.454,   1.495e-3
1.456,   1.620e-3
1.458,   1.768e-3
1.460,   1.916e-3
1.462,   2.080e-3
1.464,   2.252e-3
1.466,   2.441e-3
1.468,   2.630e-3
1.470,   2.844e-3
1.472,   3.075e-3
1.474,   3.307e-3
1.476,   3.529e-3
1.478,   3.770e-3
1.480,   4.032e-3
1.482,   4.382e-3
1.484,   4.700e-3
1.486,   5.023e-3
1.488,   5.340e-3
1.490,   5.719e-3
1.492,   6.093e-3
1.494,   6.550e-3
1.496,   6.898e-3
1.498,   7.448e-3
1.500,   8.055e-3
1.502,   8.950e-3
1.504,   9.353e-3
1.506,   1.006e-2
1.508,   1.006e-2