File: Experimental Records and Raw Data/batch1/final500/B1_BEST_500_#17_High_Quality-235mV.txt
Dec. 12, 2022   16:44:03
Linear Sweep Voltammetry
File: d:\current work\al_oer\electrochemical test data\batch 1\500\B1_BEST_500_#17_High_Quality-235mV.txt
Data Source:  Experiment
Instrument Model:  CHI660E
Header:
Note:

Init E (V) = 1.085

Final E (V) = 1.532

Scan Rate (V/s) = 0.010
Sample Interval (V) = 0.001
Quiet Time (sec) = 2
Sensitivity (A/V) = 0.001
Comp R (ohm) = 5.0

Results:

Channel 1:

Potential/V, Current/A
1.085,   5.914e-5
1.087,   5.729e-5
1.089,   5.176e-5
1.091,   4.721e-5
1.093,   4.379e-5
1.095,   4.114e-5
1.097,   3.877e-5
1.099,   3.700e-5
1.101,   3.538e-5
1.103,   3.405e-5
1.105,   3.294e-5
1.107,   3.179e-5
1.109,   3.093e-5
1.111,   3.017e-5
1.113,   2.946e-5
1.115,   2.886e-5
1.117,   2.830e-5
1.119,   2.797e-5
1.121,   2.752e-5
1.123,   2.712e-5
1.125,   2.691e-5
1.127,   2.668e-5
1.129,   2.640e-5
1.131,   2.622e-5
1.133,   2.601e-5
1.135,   2.605e-5
1.137,   2.595e-5
1.139,   2.578e-5
1.141,   2.571e-5
1.143,   2.569e-5
1.145,   2.562e-5
1.147,   2.552e-5
1.149,   2.550e-5
1.151,   2.565e-5
1.153,   2.570e-5
1.155,   2.569e-5
1.157,   2.584e-5
1.159,   2.593e-5
1.161,   2.599e-5
1.163,   2.613e-5
1.165,   2.619e-5
1.167,   2.639e-5
1.169,   2.648e-5
1.171,   2.655e-5
1.173,   2.667e-5
1.175,   2.690e-5
1.177,   2.708e-5
1.179,   2.712e-5
1.181,   2.751e-5
1.183,   2.756e-5
1.185,   2.762e-5
1.187,   2.764e-5
1.189,   2.791e-5
1.191,   2.809e-5
1.193,   2.813e-5
1.195,   2.835e-5
1.197,   2.847e-5
1.199,   2.867e-5
1.201,   2.876e-5
1.203,   2.882e-5
1.205,   2.895e-5
1.207,   2.913e-5
1.209,   2.924e-5
1.211,   2.923e-5
1.213,   2.934e-5
1.215,   2.952e-5
1.217,   2.958e-5
1.219,   2.955e-5
1.221,   2.980e-5
1.223,   2.980e-5
1.225,   2.976e-5
1.227,   2.983e-5
1.229,   2.982e-5
1.231,   2.993e-5
1.233,   2.992e-5
1.235,   2.985e-5
1.237,   2.982e-5
1.239,   2.991e-5
1.241,   2.994e-5
1.243,   2.994e-5
1.245,   2.992e-5
1.247,   3.007e-5
1.249,   3.003e-5
1.251,   3.003e-5
1.253,   3.008e-5
1.255,   3.006e-5
1.257,   3.014e-5
1.259,   3.010e-5
1.261,   3.010e-5
1.263,   3.021e-5
1.265,   3.026e-5
1.267,   3.023e-5
1.269,   3.033e-5
1.271,   3.043e-5
1.273,   3.048e-5
1.275,   3.051e-5
1.277,   3.046e-5
1.279,   3.068e-5
1.281,   3.068e-5
1.283,   3.068e-5
1.285,   3.091e-5
1.287,   3.093e-5
1.289,   3.106e-5
1.291,   3.115e-5
1.293,   3.117e-5
1.295,   3.148e-5
1.297,   3.161e-5
1.299,   3.167e-5
1.301,   3.185e-5
1.303,   3.209e-5
1.305,   3.220e-5
1.307,   3.233e-5
1.309,   3.249e-5
1.311,   3.286e-5
1.313,   3.292e-5
1.315,   3.302e-5
1.317,   3.327e-5
1.319,   3.357e-5
1.321,   3.370e-5
1.323,   3.397e-5
1.325,   3.402e-5
1.327,   3.446e-5
1.329,   3.466e-5
1.331,   3.481e-5
1.333,   3.508e-5
1.335,   3.543e-5
1.337,   3.571e-5
1.339,   3.597e-5
1.341,   3.619e-5
1.343,   3.669e-5
1.345,   3.696e-5
1.347,   3.721e-5
1.349,   3.762e-5
1.351,   3.804e-5
1.353,   3.836e-5
1.355,   3.884e-5
1.357,   3.931e-5
1.359,   4.000e-5
1.361,   4.054e-5
1.363,   4.107e-5
1.365,   4.191e-5
1.367,   4.280e-5
1.369,   4.362e-5
1.371,   4.473e-5
1.373,   4.594e-5
1.375,   4.736e-5
1.377,   4.885e-5
1.379,   5.031e-5
1.381,   5.228e-5
1.383,   5.445e-5
1.385,   5.667e-5
1.387,   5.936e-5
1.389,   6.216e-5
1.391,   6.573e-5
1.393,   6.954e-5
1.395,   7.358e-5
1.397,   7.850e-5
1.399,   8.415e-5
1.401,   9.027e-5
1.403,   9.714e-5
1.405,   1.047e-4
1.407,   1.136e-4
1.409,   1.231e-4
1.411,   1.339e-4
1.413,   1.459e-4
1.415,   1.597e-4
1.417,   1.747e-4
1.419,   1.914e-4
1.421,   2.100e-4
1.423,   2.312e-4
1.425,   2.543e-4
1.427,   2.804e-4
1.429,   3.093e-4
1.431,   3.416e-4
1.433,   3.773e-4
1.435,   4.170e-4
1.437,   4.614e-4
1.439,   5.109e-4
1.441,   5.657e-4
1.443,   6.256e-4
1.445,   6.926e-4
1.447,   7.670e-4
1.449,   8.485e-4
1.451,   9.382e-4
1.453,   1.037e-3
1.455,   1.146e-3
1.457,   1.265e-3
1.459,   1.393e-3
1.461,   1.534e-3
1.463,   1.686e-3
1.465,   1.851e-3
1.467,   2.028e-3
1.469,   2.217e-3
1.471,   2.419e-3
1.473,   2.635e-3
1.475,   2.861e-3
1.477,   3.100e-3
1.479,   3.372e-3
1.481,   3.628e-3
1.483,   3.894e-3
1.485,   4.165e-3
1.487,   4.446e-3
1.489,   4.739e-3
1.491,   5.042e-3
1.493,   5.343e-3
1.495,   5.632e-3
1.497,   5.925e-3
1.499,   6.236e-3
1.501,   6.536e-3
1.503,   6.825e-3
1.505,   7.138e-3
1.507,   7.443e-3
1.509,   7.733e-3
1.511,   8.060e-3
1.513,   8.377e-3
1.515,   8.803e-3
1.517,   9.394e-3
1.519,   9.842e-3
1.521,   1.006e-2
1.523,   1.006e-2
1.525,   1.006e-2
1.527,   1.006e-2
1.529,   1.006e-2
1.531,   1.006e-2
1.532,   1.006e-2