File: Experimental Records and Raw Data/batch1/final500/B1_BEST_500_#20_High_Quality-226mV.txt
Dec. 12, 2022   15:33:56
Linear Sweep Voltammetry
File: d:\current work\al_oer\electrochemical test data\batch 1\500\B1_BEST_500_#20_High_Quality-226mV.txt
Data Source:  Experiment
Instrument Model:  CHI660E
Header:
Note:

Init E (V) = 1.091

Final E (V) = 1.531

Scan Rate (V/s) = 0.010
Sample Interval (V) = 0.001
Quiet Time (sec) = 2
Sensitivity (A/V) = 0.001
Comp R (ohm) = 6.0

Results:

Channel 1:

Potential/V, Current/A
1.091,   3.461e-5
1.093,   3.941e-5
1.095,   3.677e-5
1.097,   3.462e-5
1.099,   3.291e-5
1.101,   3.154e-5
1.103,   3.040e-5
1.105,   2.943e-5
1.107,   2.859e-5
1.109,   2.808e-5
1.111,   2.759e-5
1.113,   2.706e-5
1.115,   2.679e-5
1.117,   2.652e-5
1.119,   2.610e-5
1.121,   2.587e-5
1.123,   2.565e-5
1.125,   2.562e-5
1.127,   2.545e-5
1.129,   2.531e-5
1.131,   2.526e-5
1.133,   2.527e-5
1.135,   2.521e-5
1.137,   2.526e-5
1.139,   2.522e-5
1.141,   2.538e-5
1.143,   2.537e-5
1.145,   2.538e-5
1.147,   2.546e-5
1.149,   2.563e-5
1.151,   2.573e-5
1.153,   2.579e-5
1.155,   2.590e-5
1.157,   2.641e-5
1.159,   2.638e-5
1.161,   2.640e-5
1.163,   2.669e-5
1.165,   2.685e-5
1.167,   2.704e-5
1.169,   2.720e-5
1.171,   2.735e-5
1.173,   2.763e-5
1.175,   2.785e-5
1.177,   2.801e-5
1.179,   2.826e-5
1.181,   2.852e-5
1.183,   2.872e-5
1.185,   2.884e-5
1.187,   2.905e-5
1.189,   2.947e-5
1.191,   2.964e-5
1.193,   2.977e-5
1.195,   3.003e-5
1.197,   3.035e-5
1.199,   3.048e-5
1.201,   3.077e-5
1.203,   3.086e-5
1.205,   3.116e-5
1.207,   3.135e-5
1.209,   3.143e-5
1.211,   3.157e-5
1.213,   3.192e-5
1.215,   3.207e-5
1.217,   3.212e-5
1.219,   3.224e-5
1.221,   3.251e-5
1.223,   3.258e-5
1.225,   3.259e-5
1.227,   3.287e-5
1.229,   3.296e-5
1.231,   3.295e-5
1.233,   3.309e-5
1.235,   3.305e-5
1.237,   3.319e-5
1.239,   3.332e-5
1.241,   3.328e-5
1.243,   3.331e-5
1.245,   3.347e-5
1.247,   3.351e-5
1.249,   3.348e-5
1.251,   3.342e-5
1.253,   3.372e-5
1.255,   3.367e-5
1.257,   3.352e-5
1.259,   3.370e-5
1.261,   3.383e-5
1.263,   3.379e-5
1.265,   3.382e-5
1.267,   3.374e-5
1.269,   3.387e-5
1.271,   3.389e-5
1.273,   3.383e-5
1.275,   3.385e-5
1.277,   3.399e-5
1.279,   3.398e-5
1.281,   3.395e-5
1.283,   3.396e-5
1.285,   3.418e-5
1.287,   3.409e-5
1.289,   3.400e-5
1.291,   3.420e-5
1.293,   3.427e-5
1.295,   3.431e-5
1.297,   3.431e-5
1.299,   3.433e-5
1.301,   3.445e-5
1.303,   3.455e-5
1.305,   3.449e-5
1.307,   3.466e-5
1.309,   3.472e-5
1.311,   3.480e-5
1.313,   3.484e-5
1.315,   3.489e-5
1.317,   3.521e-5
1.319,   3.522e-5
1.321,   3.522e-5
1.323,   3.541e-5
1.325,   3.562e-5
1.327,   3.566e-5
1.329,   3.588e-5
1.331,   3.592e-5
1.333,   3.620e-5
1.335,   3.634e-5
1.337,   3.639e-5
1.339,   3.676e-5
1.341,   3.702e-5
1.343,   3.725e-5
1.345,   3.735e-5
1.347,   3.760e-5
1.349,   3.799e-5
1.351,   3.823e-5
1.353,   3.856e-5
1.355,   3.907e-5
1.357,   3.953e-5
1.359,   3.991e-5
1.361,   4.049e-5
1.363,   4.102e-5
1.365,   4.191e-5
1.367,   4.272e-5
1.369,   4.354e-5
1.371,   4.454e-5
1.373,   4.582e-5
1.375,   4.721e-5
1.377,   4.872e-5
1.379,   5.050e-5
1.381,   5.277e-5
1.383,   5.514e-5
1.385,   5.770e-5
1.387,   6.099e-5
1.389,   6.476e-5
1.391,   6.901e-5
1.393,   7.389e-5
1.395,   7.948e-5
1.397,   8.614e-5
1.399,   9.348e-5
1.401,   1.017e-4
1.403,   1.113e-4
1.405,   1.223e-4
1.407,   1.346e-4
1.409,   1.482e-4
1.411,   1.639e-4
1.413,   1.818e-4
1.415,   2.013e-4
1.417,   2.231e-4
1.419,   2.481e-4
1.421,   2.758e-4
1.423,   3.066e-4
1.425,   3.409e-4
1.427,   3.792e-4
1.429,   4.223e-4
1.431,   4.706e-4
1.433,   5.242e-4
1.435,   5.837e-4
1.437,   6.514e-4
1.439,   7.271e-4
1.441,   8.109e-4
1.443,   9.043e-4
1.445,   1.011e-3
1.447,   1.126e-3
1.449,   1.255e-3
1.451,   1.400e-3
1.453,   1.563e-3
1.455,   1.739e-3
1.457,   1.933e-3
1.459,   2.144e-3
1.461,   2.375e-3
1.463,   2.622e-3
1.465,   2.885e-3
1.467,   3.164e-3
1.469,   3.462e-3
1.471,   3.781e-3
1.473,   4.128e-3
1.475,   4.494e-3
1.477,   4.870e-3
1.479,   5.265e-3
1.481,   5.669e-3
1.483,   6.085e-3
1.485,   6.492e-3
1.487,   6.917e-3
1.489,   7.357e-3
1.491,   7.803e-3
1.493,   8.258e-3
1.495,   8.711e-3
1.497,   9.173e-3
1.499,   9.601e-3
1.501,   1.004e-2
1.503,   1.006e-2
1.505,   1.006e-2
1.507,   1.006e-2
1.509,   1.006e-2
1.511,   1.006e-2
1.513,   1.006e-2
1.515,   1.006e-2
1.517,   1.006e-2
1.519,   1.006e-2
1.521,   1.006e-2
1.523,   1.006e-2
1.525,   1.006e-2
1.527,   1.006e-2
1.529,   1.006e-2
1.531,   1.006e-2