File: Experimental Records and Raw Data/batch1/final500/B1_BEST_500_#16_High_Quality-227mV.txt
Dec. 14, 2022   15:52:20
Linear Sweep Voltammetry
File: d:\current work\al_oer\electrochemical test data\batch 1\500\B1_BEST_500_#16_High_Quality-227mV.txt
Data Source:  Experiment
Instrument Model:  CHI660E
Header:
Note:

Init E (V) = 1.092

Final E (V) = 1.509

Scan Rate (V/s) = 0.010
Sample Interval (V) = 0.001
Quiet Time (sec) = 2
Sensitivity (A/V) = 0.001
Comp R (ohm) = 5.8

Results:

Channel 1:

Potential/V, Current/A
1.092,   3.221e-5
1.094,   3.696e-5
1.096,   3.427e-5
1.098,   3.207e-5
1.100,   3.050e-5
1.102,   2.919e-5
1.104,   2.813e-5
1.106,   2.725e-5
1.108,   2.650e-5
1.110,   2.598e-5
1.112,   2.554e-5
1.114,   2.506e-5
1.116,   2.470e-5
1.118,   2.449e-5
1.120,   2.428e-5
1.122,   2.405e-5
1.124,   2.387e-5
1.126,   2.387e-5
1.128,   2.376e-5
1.130,   2.360e-5
1.132,   2.359e-5
1.134,   2.360e-5
1.136,   2.359e-5
1.138,   2.356e-5
1.140,   2.362e-5
1.142,   2.371e-5
1.144,   2.370e-5
1.146,   2.372e-5
1.148,   2.382e-5
1.150,   2.394e-5
1.152,   2.405e-5
1.154,   2.409e-5
1.156,   2.414e-5
1.158,   2.436e-5
1.160,   2.450e-5
1.162,   2.454e-5
1.164,   2.475e-5
1.166,   2.492e-5
1.168,   2.501e-5
1.170,   2.514e-5
1.172,   2.525e-5
1.174,   2.552e-5
1.176,   2.562e-5
1.178,   2.575e-5
1.180,   2.593e-5
1.182,   2.615e-5
1.184,   2.635e-5
1.186,   2.641e-5
1.188,   2.660e-5
1.190,   2.687e-5
1.192,   2.704e-5
1.194,   2.714e-5
1.196,   2.733e-5
1.198,   2.752e-5
1.200,   2.772e-5
1.202,   2.788e-5
1.204,   2.795e-5
1.206,   2.826e-5
1.208,   2.841e-5
1.210,   2.855e-5
1.212,   2.866e-5
1.214,   2.890e-5
1.216,   2.908e-5
1.218,   2.919e-5
1.220,   2.931e-5
1.222,   2.956e-5
1.224,   2.969e-5
1.226,   2.976e-5
1.228,   2.998e-5
1.230,   3.009e-5
1.232,   3.020e-5
1.234,   3.032e-5
1.236,   3.043e-5
1.238,   3.063e-5
1.240,   3.075e-5
1.242,   3.077e-5
1.244,   3.085e-5
1.246,   3.106e-5
1.248,   3.114e-5
1.250,   3.119e-5
1.252,   3.124e-5
1.254,   3.151e-5
1.256,   3.153e-5
1.258,   3.154e-5
1.260,   3.167e-5
1.262,   3.180e-5
1.264,   3.189e-5
1.266,   3.197e-5
1.268,   3.196e-5
1.270,   3.212e-5
1.272,   3.219e-5
1.274,   3.221e-5
1.276,   3.226e-5
1.278,   3.240e-5
1.280,   3.246e-5
1.282,   3.244e-5
1.284,   3.248e-5
1.286,   3.276e-5
1.288,   3.271e-5
1.290,   3.273e-5
1.292,   3.287e-5
1.294,   3.291e-5
1.296,   3.301e-5
1.298,   3.302e-5
1.300,   3.305e-5
1.302,   3.327e-5
1.304,   3.324e-5
1.306,   3.324e-5
1.308,   3.334e-5
1.310,   3.350e-5
1.312,   3.361e-5
1.314,   3.358e-5
1.316,   3.368e-5
1.318,   3.405e-5
1.320,   3.403e-5
1.322,   3.406e-5
1.324,   3.417e-5
1.326,   3.440e-5
1.328,   3.459e-5
1.330,   3.461e-5
1.332,   3.473e-5
1.334,   3.503e-5
1.336,   3.517e-5
1.338,   3.522e-5
1.340,   3.545e-5
1.342,   3.571e-5
1.344,   3.592e-5
1.346,   3.614e-5
1.348,   3.642e-5
1.350,   3.684e-5
1.352,   3.714e-5
1.354,   3.741e-5
1.356,   3.782e-5
1.358,   3.823e-5
1.360,   3.863e-5
1.362,   3.920e-5
1.364,   3.978e-5
1.366,   4.061e-5
1.368,   4.143e-5
1.370,   4.227e-5
1.372,   4.337e-5
1.374,   4.508e-5
1.376,   4.603e-5
1.378,   4.769e-5
1.380,   4.951e-5
1.382,   5.188e-5
1.384,   5.443e-5
1.386,   5.728e-5
1.388,   6.089e-5
1.390,   6.508e-5
1.392,   6.976e-5
1.394,   7.524e-5
1.396,   8.160e-5
1.398,   8.903e-5
1.400,   9.733e-5
1.402,   1.068e-4
1.404,   1.177e-4
1.406,   1.304e-4
1.408,   1.445e-4
1.410,   1.606e-4
1.412,   1.786e-4
1.414,   1.990e-4
1.416,   2.217e-4
1.418,   2.474e-4
1.420,   2.760e-4
1.422,   3.080e-4
1.424,   3.434e-4
1.426,   3.825e-4
1.428,   4.261e-4
1.430,   4.746e-4
1.432,   5.279e-4
1.434,   5.868e-4
1.436,   6.519e-4
1.438,   7.237e-4
1.440,   8.025e-4
1.442,   8.889e-4
1.444,   9.839e-4
1.446,   1.089e-3
1.448,   1.202e-3
1.450,   1.326e-3
1.452,   1.462e-3
1.454,   1.610e-3
1.456,   1.772e-3
1.458,   1.945e-3
1.460,   2.135e-3
1.462,   2.337e-3
1.464,   2.557e-3
1.466,   2.788e-3
1.468,   3.060e-3
1.470,   3.332e-3
1.472,   3.615e-3
1.474,   3.913e-3
1.476,   4.225e-3
1.478,   4.553e-3
1.480,   4.874e-3
1.482,   5.249e-3
1.484,   5.629e-3
1.486,   6.056e-3
1.488,   6.416e-3
1.490,   6.730e-3
1.492,   7.181e-3
1.494,   7.536e-3
1.496,   7.945e-3
1.498,   8.317e-3
1.500,   8.650e-3
1.502,   9.159e-3
1.504,   9.494e-3
1.506,   1.006e-2
1.508,   1.006e-2
1.509,   1.006e-2