File: Experimental Records and Raw Data/batch1/final500/B1_BEST_500_#1_High_Quality-237mV.txt
Dec. 14, 2022   14:20:27
Linear Sweep Voltammetry
File: d:\current work\al_oer\electrochemical test data\batch 1\500\B1_BEST_500_#1_High_Quality-237mV.txt
Data Source:  Experiment
Instrument Model:  CHI660E
Header:
Note:

Init E (V) = 1.088

Final E (V) = 1.550

Scan Rate (V/s) = 0.010
Sample Interval (V) = 0.001
Quiet Time (sec) = 2
Sensitivity (A/V) = 0.001
Comp R (ohm) = 6.1

Results:

Channel 1:

Potential/V, Current/A
1.088,   9.054e-5
1.090,   8.772e-5
1.092,   7.934e-5
1.094,   7.276e-5
1.096,   6.759e-5
1.098,   6.353e-5
1.100,   6.014e-5
1.102,   5.732e-5
1.104,   5.497e-5
1.106,   5.313e-5
1.108,   5.157e-5
1.110,   5.013e-5
1.112,   4.887e-5
1.114,   4.800e-5
1.116,   4.707e-5
1.118,   4.623e-5
1.120,   4.556e-5
1.122,   4.513e-5
1.124,   4.466e-5
1.126,   4.421e-5
1.128,   4.388e-5
1.130,   4.359e-5
1.132,   4.348e-5
1.134,   4.335e-5
1.136,   4.313e-5
1.138,   4.311e-5
1.140,   4.305e-5
1.142,   4.291e-5
1.144,   4.298e-5
1.146,   4.304e-5
1.148,   4.298e-5
1.150,   4.290e-5
1.152,   4.297e-5
1.154,   4.319e-5
1.156,   4.324e-5
1.158,   4.328e-5
1.160,   4.345e-5
1.162,   4.352e-5
1.164,   4.373e-5
1.166,   4.385e-5
1.168,   4.396e-5
1.170,   4.417e-5
1.172,   4.441e-5
1.174,   4.434e-5
1.176,   4.451e-5
1.178,   4.476e-5
1.180,   4.490e-5
1.182,   4.491e-5
1.184,   4.502e-5
1.186,   4.542e-5
1.188,   4.552e-5
1.190,   4.553e-5
1.192,   4.570e-5
1.194,   4.596e-5
1.196,   4.598e-5
1.198,   4.611e-5
1.200,   4.625e-5
1.202,   4.640e-5
1.204,   4.648e-5
1.206,   4.651e-5
1.208,   4.661e-5
1.210,   4.676e-5
1.212,   4.675e-5
1.214,   4.680e-5
1.216,   4.689e-5
1.218,   4.706e-5
1.220,   4.707e-5
1.222,   4.702e-5
1.224,   4.725e-5
1.226,   4.736e-5
1.228,   4.734e-5
1.230,   4.738e-5
1.232,   4.735e-5
1.234,   4.748e-5
1.236,   4.746e-5
1.238,   4.740e-5
1.240,   4.741e-5
1.242,   4.749e-5
1.244,   4.753e-5
1.246,   4.749e-5
1.248,   4.746e-5
1.250,   4.761e-5
1.252,   4.759e-5
1.254,   4.755e-5
1.256,   4.761e-5
1.258,   4.774e-5
1.260,   4.772e-5
1.262,   4.782e-5
1.264,   4.773e-5
1.266,   4.793e-5
1.268,   4.798e-5
1.270,   4.801e-5
1.272,   4.795e-5
1.274,   4.819e-5
1.276,   4.830e-5
1.278,   4.820e-5
1.280,   4.823e-5
1.282,   4.847e-5
1.284,   4.856e-5
1.286,   4.871e-5
1.288,   4.882e-5
1.290,   4.901e-5
1.292,   4.918e-5
1.294,   4.925e-5
1.296,   4.951e-5
1.298,   4.980e-5
1.300,   4.996e-5
1.302,   5.011e-5
1.304,   5.025e-5
1.306,   5.052e-5
1.308,   5.069e-5
1.310,   5.095e-5
1.312,   5.113e-5
1.314,   5.178e-5
1.316,   5.195e-5
1.318,   5.229e-5
1.320,   5.261e-5
1.322,   5.308e-5
1.324,   5.330e-5
1.326,   5.381e-5
1.328,   5.403e-5
1.330,   5.480e-5
1.332,   5.520e-5
1.334,   5.557e-5
1.336,   5.626e-5
1.338,   5.682e-5
1.340,   5.740e-5
1.342,   5.805e-5
1.344,   5.866e-5
1.346,   5.963e-5
1.348,   6.032e-5
1.350,   6.100e-5
1.352,   6.211e-5
1.354,   6.296e-5
1.356,   6.394e-5
1.358,   6.493e-5
1.360,   6.572e-5
1.362,   6.718e-5
1.364,   6.827e-5
1.366,   6.926e-5
1.368,   7.045e-5
1.370,   7.211e-5
1.372,   7.342e-5
1.374,   7.482e-5
1.376,   7.650e-5
1.378,   7.866e-5
1.380,   8.041e-5
1.382,   8.253e-5
1.384,   8.478e-5
1.386,   8.746e-5
1.388,   9.006e-5
1.390,   9.349e-5
1.392,   9.707e-5
1.394,   1.014e-4
1.396,   1.062e-4
1.398,   1.118e-4
1.400,   1.182e-4
1.402,   1.256e-4
1.404,   1.338e-4
1.406,   1.432e-4
1.408,   1.540e-4
1.410,   1.666e-4
1.412,   1.803e-4
1.414,   1.955e-4
1.416,   2.131e-4
1.418,   2.318e-4
1.420,   2.543e-4
1.422,   2.785e-4
1.424,   3.049e-4
1.426,   3.351e-4
1.428,   3.677e-4
1.430,   4.043e-4
1.432,   4.440e-4
1.434,   4.877e-4
1.436,   5.357e-4
1.438,   5.877e-4
1.440,   6.431e-4
1.442,   7.042e-4
1.444,   7.709e-4
1.446,   8.412e-4
1.448,   9.171e-4
1.450,   1.001e-3
1.452,   1.091e-3
1.454,   1.187e-3
1.456,   1.290e-3
1.458,   1.403e-3
1.460,   1.510e-3
1.462,   1.622e-3
1.464,   1.732e-3
1.466,   1.856e-3
1.468,   1.989e-3
1.470,   2.149e-3
1.472,   2.302e-3
1.474,   2.464e-3
1.476,   2.632e-3
1.478,   2.790e-3
1.480,   2.963e-3
1.482,   3.127e-3
1.484,   3.321e-3
1.486,   3.511e-3
1.488,   3.708e-3
1.490,   3.896e-3
1.492,   4.098e-3
1.494,   4.288e-3
1.496,   4.476e-3
1.498,   4.696e-3
1.500,   4.917e-3
1.502,   5.147e-3
1.504,   5.372e-3
1.506,   5.606e-3
1.508,   5.892e-3
1.510,   6.153e-3
1.512,   6.376e-3
1.514,   6.569e-3
1.516,   6.810e-3
1.518,   7.026e-3
1.520,   7.300e-3
1.522,   7.698e-3
1.524,   7.980e-3
1.526,   8.283e-3
1.528,   8.508e-3
1.530,   8.826e-3
1.532,   9.321e-3
1.534,   9.475e-3
1.536,   1.005e-2
1.538,   1.006e-2
1.540,   1.006e-2
1.542,   1.006e-2
1.544,   1.006e-2
1.546,   1.006e-2
1.548,   1.006e-2
1.550,   1.006e-2