File: Experimental Records and Raw Data/batch1/final500/B1_VARIANCE_500_#24_Full-249mV.txt
Dec. 12, 2022   14:35:32
Linear Sweep Voltammetry
File: d:\current work\al_oer\electrochemical test data\batch 1\500\B1_VARIANCE_500_#24_Full-249mV.txt
Data Source:  Experiment
Instrument Model:  CHI660E
Header:
Note:

Init E (V) = 1.087

Final E (V) = 1.629

Scan Rate (V/s) = 0.010
Sample Interval (V) = 0.001
Quiet Time (sec) = 2
Sensitivity (A/V) = 0.001
Comp R (ohm) = 4.9

Results:

Channel 1:

Potential/V, Current/A
1.087,   1.469e-4
1.089,   1.264e-4
1.091,   1.084e-4
1.093,   9.479e-5
1.095,   8.456e-5
1.097,   7.655e-5
1.099,   7.025e-5
1.101,   6.531e-5
1.103,   6.114e-5
1.105,   5.777e-5
1.107,   5.510e-5
1.109,   5.281e-5
1.111,   5.090e-5
1.113,   4.929e-5
1.115,   4.793e-5
1.117,   4.662e-5
1.119,   4.555e-5
1.121,   4.478e-5
1.123,   4.405e-5
1.125,   4.339e-5
1.127,   4.293e-5
1.129,   4.242e-5
1.131,   4.203e-5
1.133,   4.171e-5
1.135,   4.143e-5
1.137,   4.124e-5
1.139,   4.110e-5
1.141,   4.099e-5
1.143,   4.089e-5
1.145,   4.081e-5
1.147,   4.089e-5
1.149,   4.084e-5
1.151,   4.085e-5
1.153,   4.098e-5
1.155,   4.105e-5
1.157,   4.111e-5
1.159,   4.129e-5
1.161,   4.142e-5
1.163,   4.161e-5
1.165,   4.170e-5
1.167,   4.188e-5
1.169,   4.209e-5
1.171,   4.230e-5
1.173,   4.250e-5
1.175,   4.272e-5
1.177,   4.294e-5
1.179,   4.322e-5
1.181,   4.341e-5
1.183,   4.366e-5
1.185,   4.400e-5
1.187,   4.424e-5
1.189,   4.449e-5
1.191,   4.474e-5
1.193,   4.497e-5
1.195,   4.526e-5
1.197,   4.556e-5
1.199,   4.576e-5
1.201,   4.602e-5
1.203,   4.623e-5
1.205,   4.639e-5
1.207,   4.664e-5
1.209,   4.682e-5
1.211,   4.708e-5
1.213,   4.721e-5
1.215,   4.738e-5
1.217,   4.761e-5
1.219,   4.777e-5
1.221,   4.780e-5
1.223,   4.794e-5
1.225,   4.808e-5
1.227,   4.821e-5
1.229,   4.827e-5
1.231,   4.829e-5
1.233,   4.842e-5
1.235,   4.838e-5
1.237,   4.836e-5
1.239,   4.838e-5
1.241,   4.842e-5
1.243,   4.842e-5
1.245,   4.836e-5
1.247,   4.833e-5
1.249,   4.836e-5
1.251,   4.825e-5
1.253,   4.814e-5
1.255,   4.808e-5
1.257,   4.807e-5
1.259,   4.803e-5
1.261,   4.802e-5
1.263,   4.789e-5
1.265,   4.783e-5
1.267,   4.781e-5
1.269,   4.767e-5
1.271,   4.759e-5
1.273,   4.755e-5
1.275,   4.754e-5
1.277,   4.739e-5
1.279,   4.739e-5
1.281,   4.736e-5
1.283,   4.732e-5
1.285,   4.719e-5
1.287,   4.723e-5
1.289,   4.721e-5
1.291,   4.732e-5
1.293,   4.730e-5
1.295,   4.714e-5
1.297,   4.719e-5
1.299,   4.722e-5
1.301,   4.721e-5
1.303,   4.725e-5
1.305,   4.847e-5
1.307,   4.793e-5
1.309,   4.772e-5
1.311,   4.763e-5
1.313,   4.787e-5
1.315,   4.782e-5
1.317,   4.785e-5
1.319,   4.796e-5
1.321,   4.811e-5
1.323,   4.836e-5
1.325,   4.858e-5
1.327,   4.869e-5
1.329,   4.891e-5
1.331,   4.929e-5
1.333,   4.949e-5
1.335,   4.967e-5
1.337,   4.999e-5
1.339,   5.041e-5
1.341,   5.061e-5
1.343,   5.098e-5
1.345,   5.147e-5
1.347,   5.189e-5
1.349,   5.230e-5
1.351,   5.287e-5
1.353,   5.344e-5
1.355,   5.412e-5
1.357,   5.468e-5
1.359,   5.539e-5
1.361,   5.630e-5
1.363,   5.722e-5
1.365,   5.816e-5
1.367,   5.926e-5
1.369,   6.059e-5
1.371,   6.199e-5
1.373,   6.364e-5
1.375,   6.544e-5
1.377,   6.771e-5
1.379,   7.014e-5
1.381,   7.285e-5
1.383,   7.601e-5
1.385,   7.978e-5
1.387,   8.398e-5
1.389,   8.873e-5
1.391,   9.427e-5
1.393,   1.004e-4
1.395,   1.074e-4
1.397,   1.153e-4
1.399,   1.242e-4
1.401,   1.341e-4
1.403,   1.454e-4
1.405,   1.576e-4
1.407,   1.711e-4
1.409,   1.859e-4
1.411,   2.019e-4
1.413,   2.194e-4
1.415,   2.385e-4
1.417,   2.590e-4
1.419,   2.812e-4
1.421,   3.051e-4
1.423,   3.306e-4
1.425,   3.577e-4
1.427,   3.867e-4
1.429,   4.177e-4
1.431,   4.504e-4
1.433,   4.858e-4
1.435,   5.229e-4
1.437,   5.628e-4
1.439,   6.046e-4
1.441,   6.498e-4
1.443,   6.973e-4
1.445,   7.477e-4
1.447,   8.006e-4
1.449,   8.563e-4
1.451,   9.130e-4
1.453,   9.702e-4
1.455,   1.031e-3
1.457,   1.092e-3
1.459,   1.156e-3
1.461,   1.222e-3
1.463,   1.290e-3
1.465,   1.360e-3
1.467,   1.432e-3
1.469,   1.507e-3
1.471,   1.586e-3
1.473,   1.666e-3
1.475,   1.749e-3
1.477,   1.833e-3
1.479,   1.919e-3
1.481,   2.009e-3
1.483,   2.097e-3
1.485,   2.189e-3
1.487,   2.280e-3
1.489,   2.377e-3
1.491,   2.471e-3
1.493,   2.568e-3
1.495,   2.663e-3
1.497,   2.761e-3
1.499,   2.859e-3
1.501,   2.959e-3
1.503,   3.060e-3
1.505,   3.164e-3
1.507,   3.270e-3
1.509,   3.375e-3
1.511,   3.481e-3
1.513,   3.589e-3
1.515,   3.698e-3
1.517,   3.806e-3
1.519,   3.920e-3
1.521,   4.029e-3
1.523,   4.143e-3
1.525,   4.257e-3
1.527,   4.370e-3
1.529,   4.484e-3
1.531,   4.601e-3
1.533,   4.718e-3
1.535,   4.835e-3
1.537,   4.948e-3
1.539,   5.070e-3
1.541,   5.188e-3
1.543,   5.309e-3
1.545,   5.433e-3
1.547,   5.551e-3
1.549,   5.675e-3
1.551,   5.796e-3
1.553,   5.919e-3
1.555,   6.042e-3
1.557,   6.165e-3
1.559,   6.291e-3
1.561,   6.411e-3
1.563,   6.538e-3
1.565,   6.658e-3
1.567,   6.780e-3
1.569,   6.903e-3
1.571,   7.024e-3
1.573,   7.145e-3
1.575,   7.261e-3
1.577,   7.375e-3
1.579,   7.495e-3
1.581,   7.612e-3
1.583,   7.727e-3
1.585,   7.844e-3
1.587,   7.957e-3
1.589,   8.067e-3
1.591,   8.177e-3
1.593,   8.284e-3
1.595,   8.393e-3
1.597,   8.502e-3
1.599,   8.605e-3
1.601,   8.706e-3
1.603,   8.805e-3
1.605,   8.899e-3
1.607,   8.999e-3
1.609,   9.093e-3
1.611,   9.184e-3
1.613,   9.272e-3
1.615,   9.356e-3
1.617,   9.440e-3
1.619,   9.516e-3
1.621,   9.590e-3
1.623,   9.660e-3
1.625,   9.724e-3
1.627,   9.795e-3
1.629,   9.863e-3