File: Experimental Records and Raw Data/batch1/final500/B1_VARIANCE_500_#13_High_Quality-239mV.txt
Dec. 12, 2022   15:19:35
Linear Sweep Voltammetry
File: d:\current work\al_oer\electrochemical test data\batch 1\500\B1_VARIANCE_500_#13_High_Quality-239mV.txt
Data Source:  Experiment
Instrument Model:  CHI660E
Header:
Note:

Init E (V) = 1.093

Final E (V) = 1.515

Scan Rate (V/s) = 0.010
Sample Interval (V) = 0.001
Quiet Time (sec) = 2
Sensitivity (A/V) = 0.001
Comp R (ohm) = 6.2

Results:

Channel 1:

Potential/V, Current/A
1.093,   8.547e-5
1.095,   8.405e-5
1.097,   7.656e-5
1.099,   7.042e-5
1.101,   6.534e-5
1.103,   6.116e-5
1.105,   5.782e-5
1.107,   5.507e-5
1.109,   5.274e-5
1.111,   5.103e-5
1.113,   4.924e-5
1.115,   4.771e-5
1.117,   4.640e-5
1.119,   4.539e-5
1.121,   4.442e-5
1.123,   4.355e-5
1.125,   4.289e-5
1.127,   4.254e-5
1.129,   4.212e-5
1.131,   4.151e-5
1.133,   4.111e-5
1.135,   4.081e-5
1.137,   4.056e-5
1.139,   4.041e-5
1.141,   4.010e-5
1.143,   4.019e-5
1.145,   4.011e-5
1.147,   4.005e-5
1.149,   4.014e-5
1.151,   4.034e-5
1.153,   4.036e-5
1.155,   4.050e-5
1.157,   4.057e-5
1.159,   4.075e-5
1.161,   4.098e-5
1.163,   4.100e-5
1.165,   4.153e-5
1.167,   4.181e-5
1.169,   4.224e-5
1.171,   4.253e-5
1.173,   4.304e-5
1.175,   4.287e-5
1.177,   4.338e-5
1.179,   4.435e-5
1.181,   4.461e-5
1.183,   4.549e-5
1.185,   4.544e-5
1.187,   4.571e-5
1.189,   4.648e-5
1.191,   4.589e-5
1.193,   4.532e-5
1.195,   4.839e-5
1.197,   5.004e-5
1.199,   5.007e-5
1.201,   4.946e-5
1.203,   4.530e-5
1.205,   4.989e-5
1.207,   4.802e-5
1.209,   5.194e-5
1.211,   4.620e-5
1.213,   4.790e-5
1.215,   5.143e-5
1.217,   5.293e-5
1.219,   5.279e-5
1.221,   5.178e-5
1.223,   4.996e-5
1.225,   4.810e-5
1.227,   5.066e-5
1.229,   5.463e-5
1.231,   5.147e-5
1.233,   4.964e-5
1.235,   5.430e-5
1.237,   5.151e-5
1.239,   5.031e-5
1.241,   5.492e-5
1.243,   5.040e-5
1.245,   5.102e-5
1.247,   5.508e-5
1.249,   5.023e-5
1.251,   5.015e-5
1.253,   5.456e-5
1.255,   5.326e-5
1.257,   4.951e-5
1.259,   4.862e-5
1.261,   5.111e-5
1.263,   5.294e-5
1.265,   5.419e-5
1.267,   5.422e-5
1.269,   5.371e-5
1.271,   5.258e-5
1.273,   4.954e-5
1.275,   4.710e-5
1.277,   5.016e-5
1.279,   5.418e-5
1.281,   4.816e-5
1.283,   5.064e-5
1.285,   5.051e-5
1.287,   4.991e-5
1.289,   4.813e-5
1.291,   5.296e-5
1.293,   4.816e-5
1.295,   4.654e-5
1.297,   4.887e-5
1.299,   5.019e-5
1.301,   5.031e-5
1.303,   5.082e-5
1.305,   4.914e-5
1.307,   4.669e-5
1.309,   4.633e-5
1.311,   4.922e-5
1.313,   4.937e-5
1.315,   4.668e-5
1.317,   4.890e-5
1.319,   4.661e-5
1.321,   4.873e-5
1.323,   4.760e-5
1.325,   4.838e-5
1.327,   4.782e-5
1.329,   4.794e-5
1.331,   4.709e-5
1.333,   4.787e-5
1.335,   4.784e-5
1.337,   4.850e-5
1.339,   4.750e-5
1.341,   4.839e-5
1.343,   4.800e-5
1.345,   4.798e-5
1.347,   4.853e-5
1.349,   4.826e-5
1.351,   4.818e-5
1.353,   4.867e-5
1.355,   4.912e-5
1.357,   4.879e-5
1.359,   4.916e-5
1.361,   5.000e-5
1.363,   4.988e-5
1.365,   5.013e-5
1.367,   5.154e-5
1.369,   5.149e-5
1.371,   5.353e-5
1.373,   5.262e-5
1.375,   5.396e-5
1.377,   5.690e-5
1.379,   5.540e-5
1.381,   5.939e-5
1.383,   5.956e-5
1.385,   6.047e-5
1.387,   6.268e-5
1.389,   6.696e-5
1.391,   7.479e-5
1.393,   7.174e-5
1.395,   7.812e-5
1.397,   8.432e-5
1.399,   8.690e-5
1.401,   9.777e-5
1.403,   1.028e-4
1.405,   1.121e-4
1.407,   1.191e-4
1.409,   1.331e-4
1.411,   1.421e-4
1.413,   1.563e-4
1.415,   1.661e-4
1.417,   1.824e-4
1.419,   2.003e-4
1.421,   2.150e-4
1.423,   2.401e-4
1.425,   2.614e-4
1.427,   2.796e-4
1.429,   3.108e-4
1.431,   3.374e-4
1.433,   3.676e-4
1.435,   3.996e-4
1.437,   4.434e-4
1.439,   4.779e-4
1.441,   5.210e-4
1.443,   5.740e-4
1.445,   6.288e-4
1.447,   6.872e-4
1.449,   7.549e-4
1.451,   8.352e-4
1.453,   9.196e-4
1.455,   9.997e-4
1.457,   1.100e-3
1.459,   1.214e-3
1.461,   1.322e-3
1.463,   1.448e-3
1.465,   1.595e-3
1.467,   1.741e-3
1.469,   1.895e-3
1.471,   2.069e-3
1.473,   2.260e-3
1.475,   2.454e-3
1.477,   2.668e-3
1.479,   2.944e-3
1.481,   3.240e-3
1.483,   3.542e-3
1.485,   3.867e-3
1.487,   4.195e-3
1.489,   4.550e-3
1.491,   4.918e-3
1.493,   5.266e-3
1.495,   5.651e-3
1.497,   6.398e-3
1.499,   6.815e-3
1.501,   7.200e-3
1.503,   7.569e-3
1.505,   8.226e-3
1.507,   8.609e-3
1.509,   8.805e-3
1.511,   9.970e-3
1.513,   1.006e-2
1.515,   1.006e-2