File: Experimental Records and Raw Data/batch1/final500/B1_VARIANCE_500_#7_High_Quality-217mV.txt
Dec. 12, 2022   16:22:02
Linear Sweep Voltammetry
File: d:\current work\al_oer\electrochemical test data\batch 1\500\B1_VARIANCE_500_#7_High_Quality-217mV.txt
Data Source:  Experiment
Instrument Model:  CHI660E
Header:
Note:

Init E (V) = 1.090

Final E (V) = 1.489

Scan Rate (V/s) = 0.010
Sample Interval (V) = 0.001
Quiet Time (sec) = 2
Sensitivity (A/V) = 0.001
Comp R (ohm) = 4.8

Results:

Channel 1:

Potential/V, Current/A
1.090,   7.340e-5
1.092,   6.971e-5
1.094,   6.146e-5
1.096,   5.541e-5
1.098,   5.090e-5
1.100,   4.738e-5
1.102,   4.456e-5
1.104,   4.230e-5
1.106,   4.049e-5
1.108,   3.915e-5
1.110,   3.792e-5
1.112,   3.691e-5
1.114,   3.600e-5
1.116,   3.537e-5
1.118,   3.470e-5
1.120,   3.411e-5
1.122,   3.364e-5
1.124,   3.338e-5
1.126,   3.298e-5
1.128,   3.263e-5
1.130,   3.247e-5
1.132,   3.230e-5
1.134,   3.204e-5
1.136,   3.198e-5
1.138,   3.179e-5
1.140,   3.183e-5
1.142,   3.172e-5
1.144,   3.158e-5
1.146,   3.153e-5
1.148,   3.161e-5
1.150,   3.155e-5
1.152,   3.154e-5
1.154,   3.155e-5
1.156,   3.175e-5
1.158,   3.175e-5
1.160,   3.180e-5
1.162,   3.191e-5
1.164,   3.203e-5
1.166,   3.211e-5
1.168,   3.217e-5
1.170,   3.225e-5
1.172,   3.251e-5
1.174,   3.259e-5
1.176,   3.259e-5
1.178,   3.275e-5
1.180,   3.297e-5
1.182,   3.307e-5
1.184,   3.321e-5
1.186,   3.329e-5
1.188,   3.356e-5
1.190,   3.365e-5
1.192,   3.379e-5
1.194,   3.395e-5
1.196,   3.422e-5
1.198,   3.428e-5
1.200,   3.448e-5
1.202,   3.463e-5
1.204,   3.493e-5
1.206,   3.496e-5
1.208,   3.501e-5
1.210,   3.524e-5
1.212,   3.541e-5
1.214,   3.557e-5
1.216,   3.568e-5
1.218,   3.576e-5
1.220,   3.606e-5
1.222,   3.617e-5
1.224,   3.617e-5
1.226,   3.640e-5
1.228,   3.660e-5
1.230,   3.665e-5
1.232,   3.676e-5
1.234,   3.686e-5
1.236,   3.714e-5
1.238,   3.711e-5
1.240,   3.706e-5
1.242,   3.719e-5
1.244,   3.736e-5
1.246,   3.741e-5
1.248,   3.746e-5
1.250,   3.746e-5
1.252,   3.773e-5
1.254,   3.770e-5
1.256,   3.779e-5
1.258,   3.787e-5
1.260,   3.801e-5
1.262,   3.809e-5
1.264,   3.818e-5
1.266,   3.818e-5
1.268,   3.837e-5
1.270,   3.851e-5
1.272,   3.847e-5
1.274,   3.860e-5
1.276,   3.871e-5
1.278,   3.886e-5
1.280,   3.888e-5
1.282,   3.898e-5
1.284,   3.926e-5
1.286,   3.926e-5
1.288,   3.939e-5
1.290,   3.955e-5
1.292,   4.022e-5
1.294,   4.018e-5
1.296,   4.024e-5
1.298,   4.017e-5
1.300,   4.035e-5
1.302,   4.054e-5
1.304,   4.055e-5
1.306,   4.074e-5
1.308,   4.094e-5
1.310,   4.111e-5
1.312,   4.116e-5
1.314,   4.141e-5
1.316,   4.183e-5
1.318,   4.189e-5
1.320,   4.201e-5
1.322,   4.232e-5
1.324,   4.261e-5
1.326,   4.280e-5
1.328,   4.309e-5
1.330,   4.321e-5
1.332,   4.371e-5
1.334,   4.392e-5
1.336,   4.426e-5
1.338,   4.456e-5
1.340,   4.505e-5
1.342,   4.551e-5
1.344,   4.583e-5
1.346,   4.630e-5
1.348,   4.694e-5
1.350,   4.741e-5
1.352,   4.788e-5
1.354,   4.879e-5
1.356,   4.954e-5
1.358,   5.028e-5
1.360,   5.123e-5
1.362,   5.223e-5
1.364,   5.360e-5
1.366,   5.495e-5
1.368,   5.630e-5
1.370,   5.801e-5
1.372,   6.019e-5
1.374,   6.252e-5
1.376,   6.508e-5
1.378,   6.809e-5
1.380,   7.209e-5
1.382,   7.608e-5
1.384,   8.085e-5
1.386,   8.643e-5
1.388,   9.295e-5
1.390,   1.002e-4
1.392,   1.087e-4
1.394,   1.184e-4
1.396,   1.298e-4
1.398,   1.425e-4
1.400,   1.571e-4
1.402,   1.738e-4
1.404,   1.926e-4
1.406,   2.139e-4
1.408,   2.379e-4
1.410,   2.648e-4
1.412,   2.952e-4
1.414,   3.289e-4
1.416,   3.666e-4
1.418,   4.086e-4
1.420,   4.555e-4
1.422,   5.075e-4
1.424,   5.650e-4
1.426,   6.287e-4
1.428,   6.991e-4
1.430,   7.766e-4
1.432,   8.626e-4
1.434,   9.569e-4
1.436,   1.061e-3
1.438,   1.175e-3
1.440,   1.300e-3
1.442,   1.437e-3
1.444,   1.588e-3
1.446,   1.753e-3
1.448,   1.933e-3
1.450,   2.130e-3
1.452,   2.345e-3
1.454,   2.577e-3
1.456,   2.831e-3
1.458,   3.111e-3
1.460,   3.413e-3
1.462,   3.739e-3
1.464,   4.101e-3
1.466,   4.484e-3
1.468,   4.888e-3
1.470,   5.327e-3
1.472,   5.800e-3
1.474,   6.344e-3
1.476,   6.934e-3
1.478,   7.465e-3
1.480,   8.040e-3
1.482,   8.690e-3
1.484,   9.370e-3
1.486,   1.006e-2
1.488,   1.006e-2
1.489,   1.006e-2