File: Experimental Records and Raw Data/batch1/final500/B1_VARIANCE_500_#4_High_Quality-391mV.txt
Dec. 12, 2022   14:25:24
Linear Sweep Voltammetry
File: d:\current work\al_oer\electrochemical test data\batch 1\500\B1_VARIANCE_500_#4_High_Quality-391mV.txt
Data Source:  Experiment
Instrument Model:  CHI660E
Header:
Note:

Init E (V) = 1.097

Final E (V) = 1.796

Scan Rate (V/s) = 0.010
Sample Interval (V) = 0.001
Quiet Time (sec) = 2
Sensitivity (A/V) = 0.001
Comp R (ohm) = 4.9

Results:

Channel 1:

Potential/V, Current/A
1.097,   4.474e-5
1.100,   3.753e-5
1.103,   3.173e-5
1.106,   2.772e-5
1.109,   2.465e-5
1.112,   2.224e-5
1.115,   2.052e-5
1.118,   1.905e-5
1.121,   1.801e-5
1.124,   1.706e-5
1.127,   1.631e-5
1.130,   1.572e-5
1.133,   1.515e-5
1.136,   1.470e-5
1.139,   1.433e-5
1.142,   1.400e-5
1.145,   1.364e-5
1.148,   1.343e-5
1.151,   1.324e-5
1.154,   1.306e-5
1.157,   1.287e-5
1.160,   1.276e-5
1.163,   1.267e-5
1.166,   1.247e-5
1.169,   1.245e-5
1.172,   1.233e-5
1.175,   1.221e-5
1.178,   1.216e-5
1.181,   1.219e-5
1.184,   1.213e-5
1.187,   1.206e-5
1.190,   1.201e-5
1.193,   1.199e-5
1.196,   1.196e-5
1.199,   1.205e-5
1.202,   1.237e-5
1.205,   1.223e-5
1.208,   1.217e-5
1.211,   1.220e-5
1.214,   1.216e-5
1.217,   1.226e-5
1.220,   1.226e-5
1.223,   1.221e-5
1.226,   1.220e-5
1.229,   1.224e-5
1.232,   1.224e-5
1.235,   1.230e-5
1.238,   1.234e-5
1.241,   1.249e-5
1.244,   1.234e-5
1.247,   1.234e-5
1.250,   1.237e-5
1.253,   1.244e-5
1.256,   1.259e-5
1.259,   1.253e-5
1.262,   1.255e-5
1.265,   1.259e-5
1.268,   1.261e-5
1.271,   1.272e-5
1.274,   1.280e-5
1.277,   1.285e-5
1.280,   1.289e-5
1.283,   1.300e-5
1.286,   1.313e-5
1.289,   1.314e-5
1.292,   1.319e-5
1.295,   1.324e-5
1.298,   1.340e-5
1.301,   1.348e-5
1.304,   1.358e-5
1.307,   1.366e-5
1.310,   1.381e-5
1.313,   1.388e-5
1.316,   1.400e-5
1.319,   1.408e-5
1.322,   1.423e-5
1.325,   1.433e-5
1.328,   1.453e-5
1.331,   1.464e-5
1.334,   1.482e-5
1.337,   1.493e-5
1.340,   1.516e-5
1.343,   1.533e-5
1.346,   1.555e-5
1.349,   1.576e-5
1.352,   1.596e-5
1.355,   1.616e-5
1.358,   1.642e-5
1.361,   1.664e-5
1.364,   1.687e-5
1.367,   1.714e-5
1.370,   1.744e-5
1.373,   1.773e-5
1.376,   1.802e-5
1.379,   1.837e-5
1.382,   1.877e-5
1.385,   1.918e-5
1.388,   1.965e-5
1.391,   2.016e-5
1.394,   2.085e-5
1.397,   2.152e-5
1.400,   2.241e-5
1.403,   2.325e-5
1.406,   2.433e-5
1.409,   2.567e-5
1.412,   2.732e-5
1.415,   2.919e-5
1.418,   3.146e-5
1.421,   3.404e-5
1.424,   3.716e-5
1.427,   4.083e-5
1.430,   4.525e-5
1.433,   4.999e-5
1.436,   5.613e-5
1.439,   6.215e-5
1.442,   6.915e-5
1.445,   7.814e-5
1.448,   8.762e-5
1.451,   9.788e-5
1.454,   1.099e-4
1.457,   1.230e-4
1.460,   1.381e-4
1.463,   1.550e-4
1.466,   1.733e-4
1.469,   1.937e-4
1.472,   2.149e-4
1.475,   2.385e-4
1.478,   2.634e-4
1.481,   2.896e-4
1.484,   3.186e-4
1.487,   3.483e-4
1.490,   3.816e-4
1.493,   4.151e-4
1.496,   4.484e-4
1.499,   4.852e-4
1.502,   5.231e-4
1.505,   5.210e-4
1.508,   5.628e-4
1.511,   5.983e-4
1.514,   6.330e-4
1.517,   6.689e-4
1.520,   7.057e-4
1.523,   7.443e-4
1.526,   7.823e-4
1.529,   8.132e-4
1.532,   8.512e-4
1.535,   8.749e-4
1.538,   8.806e-4
1.541,   9.379e-4
1.544,   9.885e-4
1.547,   1.034e-3
1.550,   1.083e-3
1.553,   1.128e-3
1.556,   1.184e-3
1.559,   1.216e-3
1.562,   1.214e-3
1.565,   1.152e-3
1.568,   1.229e-3
1.571,   1.284e-3
1.574,   1.332e-3
1.577,   1.382e-3
1.580,   1.378e-3
1.583,   1.440e-3
1.586,   1.486e-3
1.589,   1.545e-3
1.592,   1.600e-3
1.595,   1.665e-3
1.598,   1.563e-3
1.601,   1.668e-3
1.604,   1.736e-3
1.607,   1.788e-3
1.610,   1.800e-3
1.613,   1.847e-3
1.616,   1.912e-3
1.619,   1.912e-3
1.622,   1.963e-3
1.625,   1.998e-3
1.628,   1.976e-3
1.631,   2.041e-3
1.634,   2.098e-3
1.637,   2.153e-3
1.640,   2.127e-3
1.643,   2.195e-3
1.646,   2.256e-3
1.649,   2.254e-3
1.652,   2.170e-3
1.655,   2.247e-3
1.658,   2.278e-3
1.661,   2.234e-3
1.664,   2.264e-3
1.667,   2.277e-3
1.670,   2.288e-3
1.673,   2.348e-3
1.676,   2.326e-3
1.679,   2.379e-3
1.682,   2.383e-3
1.685,   2.303e-3
1.688,   2.379e-3
1.691,   2.417e-3
1.694,   2.436e-3
1.697,   2.423e-3
1.700,   2.358e-3
1.703,   2.426e-3
1.706,   2.466e-3
1.709,   2.436e-3
1.712,   2.412e-3
1.715,   2.472e-3
1.718,   2.428e-3
1.721,   2.446e-3
1.724,   2.442e-3
1.727,   2.432e-3
1.730,   2.436e-3
1.733,   2.413e-3
1.736,   2.431e-3
1.739,   2.419e-3
1.742,   2.475e-3
1.745,   2.473e-3
1.748,   2.506e-3
1.751,   2.278e-3
1.754,   2.365e-3
1.757,   2.387e-3
1.760,   2.406e-3
1.763,   2.400e-3
1.766,   2.387e-3
1.769,   2.423e-3
1.772,   2.386e-3
1.775,   2.411e-3
1.778,   2.335e-3
1.781,   2.331e-3
1.784,   2.304e-3
1.787,   2.280e-3
1.790,   2.271e-3
1.793,   2.194e-3
1.796,   2.187e-3