File: Experimental Records and Raw Data/batch3/final400/B3_BEST_400_#8_High_Quality(#21)-228mV.txt
Feb. 20, 2023   14:35:28
Linear Sweep Voltammetry
File: d:\current work\al_oer\electrochemical test data\batch 3\400\B3_BEST_400_#8_High_Quality(#21)-228mV.txt
Data Source:  Experiment
Instrument Model:  CHI660E
Header:
Note:

Init E (V) = 1.099

Final E (V) = 1.508

Scan Rate (V/s) = 0.010
Sample Interval (V) = 0.001
Quiet Time (sec) = 2
Sensitivity (A/V) = 0.001
Comp R (ohm) = 7.3

Results:

Channel 1:

Potential/V, Current/A
1.099,   2.543e-4
1.101,   2.250e-4
1.103,   1.972e-4
1.105,   1.756e-4
1.107,   1.588e-4
1.109,   1.453e-4
1.111,   1.345e-4
1.113,   1.257e-4
1.115,   1.182e-4
1.117,   1.121e-4
1.119,   1.069e-4
1.121,   1.024e-4
1.123,   9.856e-5
1.125,   9.529e-5
1.127,   9.244e-5
1.129,   8.996e-5
1.131,   8.766e-5
1.133,   8.595e-5
1.135,   8.421e-5
1.137,   8.273e-5
1.139,   8.141e-5
1.141,   8.039e-5
1.143,   7.938e-5
1.145,   7.850e-5
1.147,   7.770e-5
1.149,   7.714e-5
1.151,   7.659e-5
1.153,   7.606e-5
1.155,   7.556e-5
1.157,   7.521e-5
1.159,   7.500e-5
1.161,   7.467e-5
1.163,   7.443e-5
1.165,   7.444e-5
1.167,   7.432e-5
1.169,   7.420e-5
1.171,   7.419e-5
1.173,   7.416e-5
1.175,   7.422e-5
1.177,   7.415e-5
1.179,   7.425e-5
1.181,   7.442e-5
1.183,   7.457e-5
1.185,   7.461e-5
1.187,   7.472e-5
1.189,   7.491e-5
1.191,   7.508e-5
1.193,   7.520e-5
1.195,   7.535e-5
1.197,   7.567e-5
1.199,   7.586e-5
1.201,   7.594e-5
1.203,   7.624e-5
1.205,   7.648e-5
1.207,   7.669e-5
1.209,   7.693e-5
1.211,   7.699e-5
1.213,   7.727e-5
1.215,   7.754e-5
1.217,   7.768e-5
1.219,   7.788e-5
1.221,   7.813e-5
1.223,   7.836e-5
1.225,   7.847e-5
1.227,   7.858e-5
1.229,   7.888e-5
1.231,   7.899e-5
1.233,   7.915e-5
1.235,   7.932e-5
1.237,   7.953e-5
1.239,   7.962e-5
1.241,   7.976e-5
1.243,   7.984e-5
1.245,   7.997e-5
1.247,   8.016e-5
1.249,   8.021e-5
1.251,   8.027e-5
1.253,   8.037e-5
1.255,   8.047e-5
1.257,   8.049e-5
1.259,   8.046e-5
1.261,   8.076e-5
1.263,   8.073e-5
1.265,   8.069e-5
1.267,   8.073e-5
1.269,   8.079e-5
1.271,   8.081e-5
1.273,   8.090e-5
1.275,   8.077e-5
1.277,   8.092e-5
1.279,   8.093e-5
1.281,   8.086e-5
1.283,   8.085e-5
1.285,   8.099e-5
1.287,   8.105e-5
1.289,   8.098e-5
1.291,   8.096e-5
1.293,   8.118e-5
1.295,   8.111e-5
1.297,   8.110e-5
1.299,   8.128e-5
1.301,   8.131e-5
1.303,   8.132e-5
1.305,   8.134e-5
1.307,   8.144e-5
1.309,   8.172e-5
1.311,   8.180e-5
1.313,   8.180e-5
1.315,   8.190e-5
1.317,   8.208e-5
1.319,   8.229e-5
1.321,   8.233e-5
1.323,   8.245e-5
1.325,   8.305e-5
1.327,   8.304e-5
1.329,   8.312e-5
1.331,   8.344e-5
1.333,   8.370e-5
1.335,   8.408e-5
1.337,   8.446e-5
1.339,   8.453e-5
1.341,   8.499e-5
1.343,   8.546e-5
1.345,   8.576e-5
1.347,   8.615e-5
1.349,   8.674e-5
1.351,   8.741e-5
1.353,   8.775e-5
1.355,   8.843e-5
1.357,   8.929e-5
1.359,   9.010e-5
1.361,   9.077e-5
1.363,   9.176e-5
1.365,   9.283e-5
1.367,   9.391e-5
1.369,   9.513e-5
1.371,   9.650e-5
1.373,   9.823e-5
1.375,   1.001e-4
1.377,   1.019e-4
1.379,   1.041e-4
1.381,   1.068e-4
1.383,   1.097e-4
1.385,   1.129e-4
1.387,   1.166e-4
1.389,   1.211e-4
1.391,   1.258e-4
1.393,   1.313e-4
1.395,   1.376e-4
1.397,   1.449e-4
1.399,   1.532e-4
1.401,   1.627e-4
1.403,   1.733e-4
1.405,   1.856e-4
1.407,   1.992e-4
1.409,   2.149e-4
1.411,   2.325e-4
1.413,   2.525e-4
1.415,   2.750e-4
1.417,   2.996e-4
1.419,   3.276e-4
1.421,   3.588e-4
1.423,   3.931e-4
1.425,   4.310e-4
1.427,   4.729e-4
1.429,   5.186e-4
1.431,   5.695e-4
1.433,   6.252e-4
1.435,   6.854e-4
1.437,   7.522e-4
1.439,   8.249e-4
1.441,   9.037e-4
1.443,   9.902e-4
1.445,   1.083e-3
1.447,   1.183e-3
1.449,   1.292e-3
1.451,   1.410e-3
1.453,   1.535e-3
1.455,   1.671e-3
1.457,   1.817e-3
1.459,   1.979e-3
1.461,   2.146e-3
1.463,   2.321e-3
1.465,   2.512e-3
1.467,   2.726e-3
1.469,   2.944e-3
1.471,   3.165e-3
1.473,   3.395e-3
1.475,   3.640e-3
1.477,   3.962e-3
1.479,   4.218e-3
1.481,   4.514e-3
1.483,   4.832e-3
1.485,   5.138e-3
1.487,   5.448e-3
1.489,   5.841e-3
1.491,   6.320e-3
1.493,   6.688e-3
1.495,   7.106e-3
1.497,   7.490e-3
1.499,   7.989e-3
1.501,   8.322e-3
1.503,   8.671e-3
1.505,   9.318e-3
1.507,   1.005e-2
1.508,   1.006e-2