File: Experimental Records and Raw Data/batch3/final400/B3_BEST_400_#5_High_Quality(#18)-189mV.txt
Feb. 20, 2023   16:48:29
Linear Sweep Voltammetry
File: d:\current work\al_oer\electrochemical test data\batch 3\400\B3_BEST_400_#5_High_Quality(#18)-189mV.txt
Data Source:  Experiment
Instrument Model:  CHI660E
Header:
Note:

Init E (V) = 1.101

Final E (V) = 1.481

Scan Rate (V/s) = 0.010
Sample Interval (V) = 0.001
Quiet Time (sec) = 2
Sensitivity (A/V) = 0.001
Comp R (ohm) = 5.3

Results:

Channel 1:

Potential/V, Current/A
1.101,   1.581e-4
1.103,   1.651e-4
1.105,   1.500e-4
1.107,   1.381e-4
1.109,   1.290e-4
1.111,   1.217e-4
1.113,   1.159e-4
1.115,   1.112e-4
1.117,   1.071e-4
1.119,   1.041e-4
1.121,   1.014e-4
1.123,   9.922e-5
1.125,   9.726e-5
1.127,   9.578e-5
1.129,   9.449e-5
1.131,   9.318e-5
1.133,   9.212e-5
1.135,   9.162e-5
1.137,   9.089e-5
1.139,   9.015e-5
1.141,   8.967e-5
1.143,   8.934e-5
1.145,   8.923e-5
1.147,   8.898e-5
1.149,   8.875e-5
1.151,   8.877e-5
1.153,   8.868e-5
1.155,   8.862e-5
1.157,   8.866e-5
1.159,   8.877e-5
1.161,   8.909e-5
1.163,   8.906e-5
1.165,   8.920e-5
1.167,   8.957e-5
1.169,   8.980e-5
1.171,   8.987e-5
1.173,   9.029e-5
1.175,   9.051e-5
1.177,   9.083e-5
1.179,   9.111e-5
1.181,   9.129e-5
1.183,   9.172e-5
1.185,   9.226e-5
1.187,   9.242e-5
1.189,   9.269e-5
1.191,   9.311e-5
1.193,   9.361e-5
1.195,   9.392e-5
1.197,   9.407e-5
1.199,   9.471e-5
1.201,   9.507e-5
1.203,   9.532e-5
1.205,   9.564e-5
1.207,   9.608e-5
1.209,   9.633e-5
1.211,   9.682e-5
1.213,   9.693e-5
1.215,   9.740e-5
1.217,   9.774e-5
1.219,   9.800e-5
1.221,   9.831e-5
1.223,   9.859e-5
1.225,   9.907e-5
1.227,   9.908e-5
1.229,   9.916e-5
1.231,   9.974e-5
1.233,   9.988e-5
1.235,   9.998e-5
1.237,   1.003e-4
1.239,   1.006e-4
1.241,   1.007e-4
1.243,   1.008e-4
1.245,   1.008e-4
1.247,   1.011e-4
1.249,   1.015e-4
1.251,   1.013e-4
1.253,   1.012e-4
1.255,   1.016e-4
1.257,   1.019e-4
1.259,   1.019e-4
1.261,   1.019e-4
1.263,   1.023e-4
1.265,   1.024e-4
1.267,   1.023e-4
1.269,   1.026e-4
1.271,   1.028e-4
1.273,   1.030e-4
1.275,   1.033e-4
1.277,   1.032e-4
1.279,   1.037e-4
1.281,   1.041e-4
1.283,   1.042e-4
1.285,   1.043e-4
1.287,   1.048e-4
1.289,   1.051e-4
1.291,   1.052e-4
1.293,   1.056e-4
1.295,   1.064e-4
1.297,   1.066e-4
1.299,   1.070e-4
1.301,   1.076e-4
1.303,   1.082e-4
1.305,   1.088e-4
1.307,   1.094e-4
1.309,   1.101e-4
1.311,   1.109e-4
1.313,   1.119e-4
1.315,   1.124e-4
1.317,   1.134e-4
1.319,   1.146e-4
1.321,   1.157e-4
1.323,   1.168e-4
1.325,   1.179e-4
1.327,   1.198e-4
1.329,   1.211e-4
1.331,   1.226e-4
1.333,   1.243e-4
1.335,   1.265e-4
1.337,   1.287e-4
1.339,   1.311e-4
1.341,   1.334e-4
1.343,   1.365e-4
1.345,   1.399e-4
1.347,   1.430e-4
1.349,   1.470e-4
1.351,   1.512e-4
1.353,   1.563e-4
1.355,   1.612e-4
1.357,   1.670e-4
1.359,   1.734e-4
1.361,   1.804e-4
1.363,   1.878e-4
1.365,   1.968e-4
1.367,   2.063e-4
1.369,   2.168e-4
1.371,   2.286e-4
1.373,   2.417e-4
1.375,   2.570e-4
1.377,   2.736e-4
1.379,   2.923e-4
1.381,   3.135e-4
1.383,   3.378e-4
1.385,   3.648e-4
1.387,   3.952e-4
1.389,   4.299e-4
1.391,   4.694e-4
1.393,   5.134e-4
1.395,   5.630e-4
1.397,   6.190e-4
1.399,   6.817e-4
1.401,   7.516e-4
1.403,   8.297e-4
1.405,   9.158e-4
1.407,   1.011e-3
1.409,   1.116e-3
1.411,   1.229e-3
1.413,   1.352e-3
1.415,   1.485e-3
1.417,   1.635e-3
1.419,   1.849e-3
1.421,   2.021e-3
1.423,   2.204e-3
1.425,   2.393e-3
1.427,   2.596e-3
1.429,   2.805e-3
1.431,   3.023e-3
1.433,   3.250e-3
1.435,   3.481e-3
1.437,   3.720e-3
1.439,   3.964e-3
1.441,   4.210e-3
1.443,   4.475e-3
1.445,   4.938e-3
1.447,   5.174e-3
1.449,   5.420e-3
1.451,   5.689e-3
1.453,   5.967e-3
1.455,   6.230e-3
1.457,   6.497e-3
1.459,   6.863e-3
1.461,   7.552e-3
1.463,   7.837e-3
1.465,   8.030e-3
1.467,   8.229e-3
1.469,   8.524e-3
1.471,   8.760e-3
1.473,   9.016e-3
1.475,   9.198e-3
1.477,   9.555e-3
1.479,   1.001e-2
1.481,   1.006e-2