File: Experimental Records and Raw Data/batch3/final400/B3_BEST_400_#6_Full-182mV.txt
Feb. 20, 2023   15:26:56
Linear Sweep Voltammetry
File: d:\current work\al_oer\electrochemical test data\batch 3\400\B3_BEST_400_#6_Full-182mV.txt
Data Source:  Experiment
Instrument Model:  CHI660E
Header:
Note:

Init E (V) = 1.098

Final E (V) = 1.447

Scan Rate (V/s) = 0.010
Sample Interval (V) = 0.001
Quiet Time (sec) = 2
Sensitivity (A/V) = 0.001
Comp R (ohm) = 5.3

Results:

Channel 1:

Potential/V, Current/A
1.098,   2.789e-4
1.100,   2.259e-4
1.102,   1.829e-4
1.104,   1.538e-4
1.106,   1.343e-4
1.108,   1.204e-4
1.110,   1.103e-4
1.112,   1.027e-4
1.114,   9.663e-5
1.116,   9.234e-5
1.118,   8.877e-5
1.120,   8.572e-5
1.122,   8.323e-5
1.124,   8.136e-5
1.126,   7.968e-5
1.128,   7.818e-5
1.130,   7.700e-5
1.132,   7.627e-5
1.134,   7.523e-5
1.136,   7.447e-5
1.138,   7.392e-5
1.140,   7.355e-5
1.142,   7.309e-5
1.144,   7.267e-5
1.146,   7.229e-5
1.148,   7.215e-5
1.150,   7.197e-5
1.152,   7.174e-5
1.154,   7.148e-5
1.156,   7.148e-5
1.158,   7.155e-5
1.160,   7.113e-5
1.162,   7.107e-5
1.164,   7.126e-5
1.166,   7.111e-5
1.168,   7.105e-5
1.170,   7.116e-5
1.172,   7.113e-5
1.174,   7.121e-5
1.176,   7.114e-5
1.178,   7.103e-5
1.180,   7.127e-5
1.182,   7.138e-5
1.184,   7.123e-5
1.186,   7.126e-5
1.188,   7.156e-5
1.190,   7.159e-5
1.192,   7.150e-5
1.194,   7.145e-5
1.196,   7.182e-5
1.198,   7.183e-5
1.200,   7.179e-5
1.202,   7.189e-5
1.204,   7.208e-5
1.206,   7.214e-5
1.208,   7.221e-5
1.210,   7.214e-5
1.212,   7.252e-5
1.214,   7.255e-5
1.216,   7.261e-5
1.218,   7.264e-5
1.220,   7.289e-5
1.222,   7.305e-5
1.224,   7.305e-5
1.226,   7.307e-5
1.228,   7.347e-5
1.230,   7.349e-5
1.232,   7.339e-5
1.234,   7.368e-5
1.236,   7.388e-5
1.238,   7.389e-5
1.240,   7.411e-5
1.242,   7.413e-5
1.244,   7.442e-5
1.246,   7.450e-5
1.248,   7.461e-5
1.250,   7.472e-5
1.252,   7.509e-5
1.254,   7.518e-5
1.256,   7.519e-5
1.258,   7.535e-5
1.260,   7.596e-5
1.262,   7.603e-5
1.264,   7.604e-5
1.266,   7.641e-5
1.268,   7.673e-5
1.270,   7.686e-5
1.272,   7.719e-5
1.274,   7.728e-5
1.276,   7.770e-5
1.278,   7.805e-5
1.280,   7.810e-5
1.282,   7.832e-5
1.284,   7.895e-5
1.286,   7.932e-5
1.288,   7.953e-5
1.290,   7.974e-5
1.292,   8.041e-5
1.294,   8.088e-5
1.296,   8.106e-5
1.298,   8.169e-5
1.300,   8.221e-5
1.302,   8.271e-5
1.304,   8.317e-5
1.306,   8.367e-5
1.308,   8.450e-5
1.310,   8.518e-5
1.312,   8.572e-5
1.314,   8.650e-5
1.316,   8.749e-5
1.318,   8.843e-5
1.320,   8.922e-5
1.322,   9.022e-5
1.324,   9.189e-5
1.326,   9.278e-5
1.328,   9.389e-5
1.330,   9.545e-5
1.332,   9.719e-5
1.334,   9.886e-5
1.336,   1.009e-4
1.338,   1.028e-4
1.340,   1.053e-4
1.342,   1.079e-4
1.344,   1.105e-4
1.346,   1.137e-4
1.348,   1.173e-4
1.350,   1.210e-4
1.352,   1.251e-4
1.354,   1.299e-4
1.356,   1.353e-4
1.358,   1.412e-4
1.360,   1.475e-4
1.362,   1.550e-4
1.364,   1.633e-4
1.366,   1.727e-4
1.368,   1.830e-4
1.370,   1.948e-4
1.372,   2.088e-4
1.374,   2.246e-4
1.376,   2.426e-4
1.378,   2.634e-4
1.380,   2.878e-4
1.382,   3.157e-4
1.384,   3.479e-4
1.386,   3.852e-4
1.388,   4.294e-4
1.390,   4.798e-4
1.392,   5.377e-4
1.394,   6.058e-4
1.396,   6.840e-4
1.398,   7.744e-4
1.400,   8.781e-4
1.402,   9.975e-4
1.404,   1.135e-3
1.406,   1.291e-3
1.408,   1.467e-3
1.410,   1.667e-3
1.412,   1.891e-3
1.414,   2.142e-3
1.416,   2.417e-3
1.418,   2.718e-3
1.420,   3.046e-3
1.422,   3.391e-3
1.424,   3.744e-3
1.426,   4.116e-3
1.428,   4.478e-3
1.430,   4.836e-3
1.432,   5.154e-3
1.434,   5.471e-3
1.436,   5.715e-3
1.438,   5.920e-3
1.440,   6.076e-3
1.442,   6.176e-3
1.444,   6.226e-3
1.446,   6.215e-3
1.447,   6.209e-3