File: Experimental Records and Raw Data/batch3/final400/B3_BEST_400_#4_High_Quality(#17)-207mV.txt
Feb. 21, 2023   16:48:53
Linear Sweep Voltammetry
File: d:\current work\al_oer\electrochemical test data\batch 3\400\B3_BEST_400_#4_High_Quality(#17)-207mV.txt
Data Source:  Experiment
Instrument Model:  CHI660E
Header:
Note:

Init E (V) = 1.099

Final E (V) = 1.574

Scan Rate (V/s) = 0.010
Sample Interval (V) = 0.001
Quiet Time (sec) = 2
Sensitivity (A/V) = 0.001
Comp R (ohm) = 5.6

Results:

Channel 1:
Ep = 1.286V
ip = 9.995e-3A
Ah = 5.860e-2C

Potential/V, Current/A
1.099,   2.535e-4
1.101,   2.283e-4
1.103,   2.004e-4
1.105,   1.788e-4
1.107,   1.619e-4
1.109,   1.483e-4
1.111,   1.372e-4
1.113,   1.281e-4
1.115,   1.205e-4
1.117,   1.141e-4
1.119,   1.086e-4
1.121,   1.038e-4
1.123,   9.970e-5
1.125,   9.621e-5
1.127,   9.305e-5
1.129,   9.019e-5
1.131,   8.772e-5
1.133,   8.578e-5
1.135,   8.367e-5
1.137,   8.191e-5
1.139,   8.036e-5
1.141,   7.898e-5
1.143,   7.769e-5
1.145,   7.655e-5
1.147,   7.531e-5
1.149,   7.452e-5
1.151,   7.359e-5
1.153,   7.275e-5
1.155,   7.199e-5
1.157,   7.147e-5
1.159,   7.085e-5
1.161,   7.025e-5
1.163,   6.961e-5
1.165,   6.942e-5
1.167,   6.896e-5
1.169,   6.842e-5
1.171,   6.817e-5
1.173,   6.793e-5
1.175,   6.763e-5
1.177,   6.733e-5
1.179,   6.707e-5
1.181,   6.692e-5
1.183,   6.672e-5
1.185,   6.640e-5
1.187,   6.626e-5
1.189,   6.621e-5
1.191,   6.606e-5
1.193,   6.584e-5
1.195,   6.571e-5
1.197,   6.582e-5
1.199,   6.569e-5
1.201,   6.544e-5
1.203,   6.535e-5
1.205,   6.537e-5
1.207,   6.522e-5
1.209,   6.522e-5
1.211,   6.506e-5
1.213,   6.512e-5
1.215,   6.507e-5
1.217,   6.490e-5
1.219,   6.483e-5
1.221,   6.493e-5
1.223,   6.487e-5
1.225,   6.467e-5
1.227,   6.467e-5
1.229,   6.475e-5
1.231,   6.466e-5
1.233,   6.455e-5
1.235,   6.462e-5
1.237,   6.461e-5
1.239,   6.454e-5
1.241,   6.438e-5
1.243,   6.430e-5
1.245,   6.453e-5
1.247,   6.453e-5
1.249,   6.436e-5
1.251,   6.418e-5
1.253,   6.439e-5
1.255,   6.438e-5
1.257,   6.423e-5
1.259,   6.417e-5
1.261,   6.443e-5
1.263,   6.432e-5
1.265,   6.412e-5
1.267,   6.429e-5
1.269,   6.432e-5
1.271,   6.432e-5
1.273,   6.428e-5
1.275,   6.420e-5
1.277,   6.433e-5
1.279,   6.439e-5
1.281,   6.428e-5
1.283,   6.423e-5
1.285,   6.442e-5
1.287,   6.450e-5
1.289,   6.449e-5
1.291,   6.450e-5
1.293,   6.471e-5
1.295,   6.472e-5
1.297,   6.467e-5
1.299,   6.479e-5
1.301,   6.497e-5
1.303,   6.504e-5
1.305,   6.510e-5
1.307,   6.516e-5
1.309,   6.551e-5
1.311,   6.551e-5
1.313,   6.557e-5
1.315,   6.580e-5
1.317,   6.611e-5
1.319,   6.629e-5
1.321,   6.643e-5
1.323,   6.661e-5
1.325,   6.726e-5
1.327,   6.731e-5
1.329,   6.746e-5
1.331,   6.785e-5
1.333,   6.825e-5
1.335,   6.863e-5
1.337,   6.909e-5
1.339,   6.942e-5
1.341,   7.020e-5
1.343,   7.071e-5
1.345,   7.114e-5
1.347,   7.187e-5
1.349,   7.274e-5
1.351,   7.361e-5
1.353,   7.443e-5
1.355,   7.552e-5
1.357,   7.701e-5
1.359,   7.836e-5
1.361,   7.965e-5
1.363,   8.159e-5
1.365,   8.364e-5
1.367,   8.592e-5
1.369,   8.851e-5
1.371,   9.145e-5
1.373,   9.512e-5
1.375,   9.920e-5
1.377,   1.037e-4
1.379,   1.092e-4
1.381,   1.156e-4
1.383,   1.228e-4
1.385,   1.311e-4
1.387,   1.408e-4
1.389,   1.524e-4
1.391,   1.654e-4
1.393,   1.802e-4
1.395,   1.975e-4
1.397,   2.174e-4
1.399,   2.401e-4
1.401,   2.661e-4
1.403,   2.954e-4
1.405,   3.293e-4
1.407,   3.671e-4
1.409,   4.099e-4
1.411,   4.579e-4
1.413,   5.123e-4
1.415,   5.728e-4
1.417,   6.402e-4
1.419,   7.149e-4
1.421,   7.992e-4
1.423,   8.909e-4
1.425,   9.913e-4
1.427,   1.103e-3
1.429,   1.225e-3
1.431,   1.359e-3
1.433,   1.507e-3
1.435,   1.667e-3
1.437,   1.839e-3
1.439,   2.029e-3
1.441,   2.238e-3
1.443,   2.457e-3
1.445,   2.699e-3
1.447,   2.959e-3
1.449,   3.235e-3
1.451,   3.535e-3
1.453,   3.856e-3
1.455,   4.199e-3
1.457,   4.556e-3
1.459,   4.938e-3
1.461,   5.326e-3
1.463,   5.731e-3
1.465,   6.149e-3
1.467,   6.593e-3
1.469,   7.049e-3
1.471,   7.492e-3
1.473,   7.943e-3
1.475,   8.387e-3
1.477,   8.927e-3
1.479,   9.333e-3
1.481,   9.692e-3
1.483,   1.004e-2
1.485,   1.006e-2
1.487,   1.006e-2
1.489,   1.006e-2
1.491,   1.006e-2
1.493,   1.006e-2
1.495,   1.006e-2
1.497,   1.006e-2
1.499,   1.006e-2
1.501,   1.006e-2
1.503,   1.006e-2
1.505,   1.006e-2
1.507,   1.006e-2
1.509,   1.006e-2
1.511,   1.006e-2
1.513,   1.006e-2
1.515,   1.006e-2
1.517,   1.006e-2
1.519,   1.006e-2
1.521,   1.006e-2
1.523,   1.006e-2
1.525,   1.006e-2
1.527,   1.006e-2
1.529,   1.006e-2
1.531,   1.006e-2
1.533,   1.006e-2
1.535,   1.006e-2
1.537,   1.006e-2
1.539,   1.006e-2
1.541,   1.006e-2
1.543,   1.006e-2
1.545,   1.006e-2
1.547,   1.006e-2
1.549,   1.006e-2
1.551,   1.006e-2
1.553,   1.006e-2
1.555,   1.006e-2
1.557,   1.006e-2
1.559,   1.006e-2
1.561,   1.006e-2
1.563,   1.006e-2
1.565,   1.006e-2
1.567,   1.006e-2
1.569,   1.006e-2
1.571,   1.006e-2
1.573,   1.006e-2
1.574,   1.006e-2