File: Experimental Records and Raw Data/batch3/final400/B3_BEST_400_#6_High_Quality(#19)-187mV.txt
Feb. 21, 2023   14:50:35
Linear Sweep Voltammetry
File: d:\current work\al_oer\electrochemical test data\batch 3\400\B3_BEST_400_#6_High_Quality(#19)-187mV.txt
Data Source:  Experiment
Instrument Model:  CHI660E
Header:
Note:

Init E (V) = 1.098

Final E (V) = 1.452

Scan Rate (V/s) = 0.010
Sample Interval (V) = 0.001
Quiet Time (sec) = 2
Sensitivity (A/V) = 0.001
Comp R (ohm) = 5.3

Results:

Channel 1:

Potential/V, Current/A
1.098,   7.335e-4
1.100,   5.710e-4
1.102,   4.535e-4
1.104,   3.800e-4
1.106,   3.324e-4
1.108,   2.991e-4
1.110,   2.751e-4
1.112,   2.568e-4
1.114,   2.427e-4
1.116,   2.326e-4
1.118,   2.235e-4
1.120,   2.157e-4
1.122,   2.106e-4
1.124,   2.052e-4
1.126,   2.010e-4
1.128,   1.977e-4
1.130,   1.943e-4
1.132,   1.924e-4
1.134,   1.892e-4
1.136,   1.879e-4
1.138,   1.871e-4
1.140,   1.851e-4
1.142,   1.826e-4
1.144,   1.810e-4
1.146,   1.811e-4
1.148,   1.798e-4
1.150,   1.774e-4
1.152,   1.777e-4
1.154,   1.782e-4
1.156,   1.776e-4
1.158,   1.801e-4
1.160,   1.769e-4
1.162,   1.760e-4
1.164,   1.823e-4
1.166,   1.792e-4
1.168,   1.777e-4
1.170,   1.739e-4
1.172,   1.739e-4
1.174,   1.766e-4
1.176,   1.778e-4
1.178,   1.787e-4
1.180,   1.820e-4
1.182,   1.847e-4
1.184,   1.786e-4
1.186,   1.736e-4
1.188,   1.814e-4
1.190,   1.821e-4
1.192,   1.815e-4
1.194,   1.822e-4
1.196,   1.803e-4
1.198,   1.761e-4
1.200,   1.895e-4
1.202,   1.837e-4
1.204,   1.730e-4
1.206,   1.917e-4
1.208,   1.799e-4
1.210,   1.825e-4
1.212,   1.736e-4
1.214,   1.903e-4
1.216,   1.770e-4
1.218,   1.936e-4
1.220,   1.788e-4
1.222,   1.865e-4
1.224,   1.781e-4
1.226,   1.807e-4
1.228,   1.853e-4
1.230,   1.816e-4
1.232,   1.852e-4
1.234,   1.842e-4
1.236,   1.821e-4
1.238,   1.815e-4
1.240,   1.850e-4
1.242,   1.915e-4
1.244,   1.852e-4
1.246,   1.857e-4
1.248,   1.859e-4
1.250,   1.812e-4
1.252,   1.792e-4
1.254,   1.835e-4
1.256,   1.835e-4
1.258,   1.836e-4
1.260,   1.805e-4
1.262,   1.815e-4
1.264,   1.942e-4
1.266,   1.914e-4
1.268,   1.845e-4
1.270,   1.874e-4
1.272,   1.911e-4
1.274,   1.781e-4
1.276,   1.892e-4
1.278,   1.929e-4
1.280,   1.780e-4
1.282,   1.884e-4
1.284,   1.845e-4
1.286,   1.753e-4
1.288,   1.907e-4
1.290,   1.770e-4
1.292,   1.957e-4
1.294,   1.814e-4
1.296,   1.840e-4
1.298,   1.780e-4
1.300,   1.902e-4
1.302,   1.871e-4
1.304,   1.943e-4
1.306,   1.803e-4
1.308,   1.932e-4
1.310,   1.866e-4
1.312,   1.875e-4
1.314,   1.962e-4
1.316,   1.781e-4
1.318,   1.900e-4
1.320,   2.035e-4
1.322,   1.892e-4
1.324,   1.811e-4
1.326,   1.979e-4
1.328,   2.104e-4
1.330,   2.086e-4
1.332,   1.952e-4
1.334,   1.912e-4
1.336,   1.886e-4
1.338,   1.864e-4
1.340,   1.901e-4
1.342,   1.913e-4
1.344,   1.969e-4
1.346,   1.955e-4
1.348,   1.992e-4
1.350,   1.998e-4
1.352,   2.199e-4
1.354,   2.302e-4
1.356,   2.418e-4
1.358,   2.141e-4
1.360,   2.282e-4
1.362,   2.464e-4
1.364,   2.399e-4
1.366,   2.454e-4
1.368,   2.729e-4
1.370,   2.458e-4
1.372,   2.814e-4
1.374,   2.834e-4
1.376,   3.212e-4
1.378,   3.212e-4
1.380,   3.436e-4
1.382,   3.712e-4
1.384,   3.791e-4
1.386,   4.071e-4
1.388,   4.372e-4
1.390,   4.703e-4
1.392,   5.049e-4
1.394,   5.546e-4
1.396,   6.177e-4
1.398,   6.842e-4
1.400,   7.521e-4
1.402,   8.258e-4
1.404,   9.183e-4
1.406,   1.022e-3
1.408,   1.152e-3
1.410,   1.263e-3
1.412,   1.444e-3
1.414,   1.594e-3
1.416,   1.784e-3
1.418,   2.005e-3
1.420,   2.284e-3
1.422,   2.535e-3
1.424,   2.854e-3
1.426,   3.191e-3
1.428,   3.559e-3
1.430,   3.976e-3
1.432,   4.419e-3
1.434,   4.900e-3
1.436,   5.375e-3
1.438,   5.922e-3
1.440,   6.577e-3
1.442,   7.218e-3
1.444,   7.953e-3
1.446,   8.897e-3
1.448,   9.599e-3
1.450,   1.006e-2
1.452,   1.006e-2