File: Experimental Records and Raw Data/batch3/final400/B3_VARIANCE_400_#1_Full(#9)-294mV.txt
Feb. 20, 2023   15:52:43
Linear Sweep Voltammetry
File: d:\current work\al_oer\electrochemical test data\batch 3\400\B3_VARIANCE_400_#1_Full(#9)-294mV.txt
Data Source:  Experiment
Instrument Model:  CHI660E
Header:
Note:

Init E (V) = 1.023

Final E (V) = 1.532

Scan Rate (V/s) = 0.010
Sample Interval (V) = 0.001
Quiet Time (sec) = 2
Sensitivity (A/V) = 0.001

Results:

Channel 1:

Potential/V, Current/A
1.023,   -2.589E-06
1.025,   9.266E-07
1.027,   2.216E-06
1.029,   3.128E-06
1.031,   3.850E-06
1.033,   4.274E-06
1.035,   4.983E-06
1.037,   5.330E-06
1.039,   5.923E-06
1.041,   6.394E-06
1.043,   6.686E-06
1.045,   6.887E-06
1.047,   7.202E-06
1.049,   7.531E-06
1.051,   7.874E-06
1.053,   7.969E-06
1.055,   8.317E-06
1.057,   8.549E-06
1.059,   8.696E-06
1.061,   9.002E-06
1.063,   9.239E-06
1.065,   9.330E-06
1.067,   9.463E-06
1.069,   9.760E-06
1.071,   9.915E-06
1.073,   9.942E-06
1.075,   1.004E-05
1.077,   1.028E-05
1.079,   1.041E-05
1.081,   1.051E-05
1.083,   1.071E-05
1.085,   1.089E-05
1.087,   1.074E-05
1.089,   1.108E-05
1.091,   1.138E-05
1.093,   1.129E-05
1.095,   1.149E-05
1.097,   1.145E-05
1.099,   1.167E-05
1.101,   1.189E-05
1.103,   1.203E-05
1.105,   1.213E-05
1.107,   1.235E-05
1.109,   1.239E-05
1.111,   1.243E-05
1.113,   1.280E-05
1.115,   1.260E-05
1.117,   1.289E-05
1.119,   1.297E-05
1.121,   1.313E-05
1.123,   1.345E-05
1.125,   1.342E-05
1.127,   1.371E-05
1.129,   1.380E-05
1.131,   1.398E-05
1.133,   1.397E-05
1.135,   1.401E-05
1.137,   1.430E-05
1.139,   1.438E-05
1.141,   1.462E-05
1.143,   1.485E-05
1.145,   1.484E-05
1.147,   1.505E-05
1.149,   1.519E-05
1.151,   1.520E-05
1.153,   1.552E-05
1.155,   1.558E-05
1.157,   1.572E-05
1.159,   1.577E-05
1.161,   1.608E-05
1.163,   1.612E-05
1.165,   1.648E-05
1.167,   1.647E-05
1.169,   1.670E-05
1.171,   1.676E-05
1.173,   1.702E-05
1.175,   1.715E-05
1.177,   1.735E-05
1.179,   1.742E-05
1.181,   1.766E-05
1.183,   1.774E-05
1.185,   1.808E-05
1.187,   1.819E-05
1.189,   1.860E-05
1.191,   1.862E-05
1.193,   1.891E-05
1.195,   1.897E-05
1.197,   1.930E-05
1.199,   1.932E-05
1.201,   1.952E-05
1.203,   1.967E-05
1.205,   2.022E-05
1.207,   2.031E-05
1.209,   2.060E-05
1.211,   2.079E-05
1.213,   2.088E-05
1.215,   2.104E-05
1.217,   2.148E-05
1.219,   2.166E-05
1.221,   2.183E-05
1.223,   2.215E-05
1.225,   2.250E-05
1.227,   2.265E-05
1.229,   2.285E-05
1.231,   2.293E-05
1.233,   2.355E-05
1.235,   2.344E-05
1.237,   2.375E-05
1.239,   2.418E-05
1.241,   2.444E-05
1.243,   2.463E-05
1.245,   2.503E-05
1.247,   2.524E-05
1.249,   2.549E-05
1.251,   2.583E-05
1.253,   2.604E-05
1.255,   2.647E-05
1.257,   2.692E-05
1.259,   2.701E-05
1.261,   2.747E-05
1.263,   2.772E-05
1.265,   2.815E-05
1.267,   2.840E-05
1.269,   2.901E-05
1.271,   2.910E-05
1.273,   2.948E-05
1.275,   2.985E-05
1.277,   3.037E-05
1.279,   3.073E-05
1.281,   3.115E-05
1.283,   3.148E-05
1.285,   3.206E-05
1.287,   3.259E-05
1.289,   3.292E-05
1.291,   3.356E-05
1.293,   3.392E-05
1.295,   3.436E-05
1.297,   3.504E-05
1.299,   3.568E-05
1.301,   3.631E-05
1.303,   3.706E-05
1.305,   3.769E-05
1.307,   3.844E-05
1.309,   3.934E-05
1.311,   4.025E-05
1.313,   4.156E-05
1.315,   4.269E-05
1.317,   4.382E-05
1.319,   4.523E-05
1.321,   4.686E-05
1.323,   4.846E-05
1.325,   5.047E-05
1.327,   5.252E-05
1.329,   5.490E-05
1.331,   5.718E-05
1.333,   6.019E-05
1.335,   6.325E-05
1.337,   6.677E-05
1.339,   7.074E-05
1.341,   7.504E-05
1.343,   7.956E-05
1.345,   8.463E-05
1.347,   9.038E-05
1.349,   9.668E-05
1.351,   1.034E-04
1.353,   1.109E-04
1.355,   1.191E-04
1.357,   1.277E-04
1.359,   1.372E-04
1.361,   1.476E-04
1.363,   1.587E-04
1.365,   1.708E-04
1.367,   1.830E-04
1.369,   1.970E-04
1.371,   2.117E-04
1.373,   2.274E-04
1.375,   2.444E-04
1.377,   2.621E-04
1.379,   2.809E-04
1.381,   3.010E-04
1.383,   3.221E-04
1.385,   3.443E-04
1.387,   3.682E-04
1.389,   3.928E-04
1.391,   4.185E-04
1.393,   4.450E-04
1.395,   4.731E-04
1.397,   5.024E-04
1.399,   5.321E-04
1.401,   5.636E-04
1.403,   5.960E-04
1.405,   6.284E-04
1.407,   6.622E-04
1.409,   6.974E-04
1.411,   7.339E-04
1.413,   7.709E-04
1.415,   8.084E-04
1.417,   8.463E-04
1.419,   8.846E-04
1.421,   9.230E-04
1.423,   9.623E-04
1.425,   1.002E-03
1.427,   1.041E-03
1.429,   1.081E-03
1.431,   1.121E-03
1.433,   1.161E-03
1.435,   1.201E-03
1.437,   1.240E-03
1.439,   1.276E-03
1.441,   1.314E-03
1.443,   1.351E-03
1.445,   1.387E-03
1.447,   1.423E-03
1.449,   1.458E-03
1.451,   1.491E-03
1.453,   1.523E-03
1.455,   1.554E-03
1.457,   1.584E-03
1.459,   1.612E-03
1.461,   1.638E-03
1.463,   1.665E-03
1.465,   1.689E-03
1.467,   1.713E-03
1.469,   1.735E-03
1.471,   1.756E-03
1.473,   1.776E-03
1.475,   1.794E-03
1.477,   1.811E-03
1.479,   1.827E-03
1.481,   1.840E-03
1.483,   1.855E-03
1.485,   1.867E-03
1.487,   1.878E-03
1.489,   1.889E-03
1.491,   1.900E-03
1.493,   1.908E-03
1.495,   1.915E-03
1.497,   1.921E-03
1.499,   1.927E-03
1.501,   1.933E-03
1.503,   1.938E-03
1.505,   1.941E-03
1.507,   1.946E-03
1.509,   1.950E-03
1.511,   1.952E-03
1.513,   1.954E-03
1.515,   1.957E-03
1.517,   1.956E-03
1.519,   1.958E-03
1.521,   1.960E-03
1.523,   1.960E-03
1.525,   1.962E-03
1.527,   1.962E-03
1.529,   1.961E-03
1.531,   1.961E-03
1.532,   1.960E-03