File: Experimental Records and Raw Data/batch3/final400/B3_VARIANCE_400_#2_Full(#10)-282mV.txt
Feb. 21, 2023   15:53:14
Linear Sweep Voltammetry
File: d:\current work\al_oer\electrochemical test data\batch 3\400\B3_VARIANCE_400_#2_Full(#10)-282mV.txt
Data Source:  Experiment
Instrument Model:  CHI660E
Header:
Note:

Init E (V) = 1.087

Final E (V) = 1.616

Scan Rate (V/s) = 0.010
Sample Interval (V) = 0.001
Quiet Time (sec) = 2
Sensitivity (A/V) = 0.001
Comp R (ohm) = 5.2

Results:

Channel 1:

Potential/V, Current/A
1.087,   2.372e-5
1.089,   2.165e-5
1.091,   1.947e-5
1.093,   1.778e-5
1.095,   1.643e-5
1.097,   1.530e-5
1.099,   1.435e-5
1.101,   1.354e-5
1.103,   1.283e-5
1.105,   1.223e-5
1.107,   1.171e-5
1.109,   1.122e-5
1.111,   1.080e-5
1.113,   1.043e-5
1.115,   1.010e-5
1.117,   9.793e-6
1.119,   9.490e-6
1.121,   9.266e-6
1.123,   9.024e-6
1.125,   8.809e-6
1.127,   8.613e-6
1.129,   8.454e-6
1.131,   8.292e-6
1.133,   8.165e-6
1.135,   8.011e-6
1.137,   7.911e-6
1.139,   7.807e-6
1.141,   7.716e-6
1.143,   7.604e-6
1.145,   7.522e-6
1.147,   7.435e-6
1.149,   7.360e-6
1.151,   7.267e-6
1.153,   7.202e-6
1.155,   7.146e-6
1.157,   7.095e-6
1.159,   7.050e-6
1.161,   6.988e-6
1.163,   6.919e-6
1.165,   6.895e-6
1.167,   6.844e-6
1.169,   6.823e-6
1.171,   6.767e-6
1.173,   6.738e-6
1.175,   6.711e-6
1.177,   6.682e-6
1.179,   6.662e-6
1.181,   6.642e-6
1.183,   6.615e-6
1.185,   6.607e-6
1.187,   6.585e-6
1.189,   6.532e-6
1.191,   6.511e-6
1.193,   6.521e-6
1.195,   6.505e-6
1.197,   6.496e-6
1.199,   6.478e-6
1.201,   6.494e-6
1.203,   6.492e-6
1.205,   6.448e-6
1.207,   6.426e-6
1.209,   6.434e-6
1.211,   6.436e-6
1.213,   6.424e-6
1.215,   6.418e-6
1.217,   6.454e-6
1.219,   6.417e-6
1.221,   6.436e-6
1.223,   6.428e-6
1.225,   6.432e-6
1.227,   6.449e-6
1.229,   6.457e-6
1.231,   6.442e-6
1.233,   6.481e-6
1.235,   6.475e-6
1.237,   6.460e-6
1.239,   6.486e-6
1.241,   6.479e-6
1.243,   6.494e-6
1.245,   6.480e-6
1.247,   6.507e-6
1.249,   6.514e-6
1.251,   6.531e-6
1.253,   6.543e-6
1.255,   6.552e-6
1.257,   6.557e-6
1.259,   6.546e-6
1.261,   6.568e-6
1.263,   6.552e-6
1.265,   6.583e-6
1.267,   6.586e-6
1.269,   6.611e-6
1.271,   6.595e-6
1.273,   6.666e-6
1.275,   6.664e-6
1.277,   6.679e-6
1.279,   6.703e-6
1.281,   6.724e-6
1.283,   6.735e-6
1.285,   6.767e-6
1.287,   6.770e-6
1.289,   6.759e-6
1.291,   6.795e-6
1.293,   6.844e-6
1.295,   6.840e-6
1.297,   6.897e-6
1.299,   6.908e-6
1.301,   6.932e-6
1.303,   6.969e-6
1.305,   6.949e-6
1.307,   6.995e-6
1.309,   6.996e-6
1.311,   7.024e-6
1.313,   7.119e-6
1.315,   7.078e-6
1.317,   7.146e-6
1.319,   7.183e-6
1.321,   7.230e-6
1.323,   7.264e-6
1.325,   7.314e-6
1.327,   7.337e-6
1.329,   7.375e-6
1.331,   7.436e-6
1.333,   7.493e-6
1.335,   7.526e-6
1.337,   7.568e-6
1.339,   7.617e-6
1.341,   7.685e-6
1.343,   7.742e-6
1.345,   7.808e-6
1.347,   7.893e-6
1.349,   7.952e-6
1.351,   8.051e-6
1.353,   8.147e-6
1.355,   8.242e-6
1.357,   8.351e-6
1.359,   8.491e-6
1.361,   8.622e-6
1.363,   8.763e-6
1.365,   8.981e-6
1.367,   9.183e-6
1.369,   9.403e-6
1.371,   9.677e-6
1.373,   9.981e-6
1.375,   1.034e-5
1.377,   1.074e-5
1.379,   1.120e-5
1.381,   1.169e-5
1.383,   1.227e-5
1.385,   1.295e-5
1.387,   1.370e-5
1.389,   1.457e-5
1.391,   1.554e-5
1.393,   1.668e-5
1.395,   1.788e-5
1.397,   1.926e-5
1.399,   2.085e-5
1.401,   2.262e-5
1.403,   2.461e-5
1.405,   2.685e-5
1.407,   2.922e-5
1.409,   3.199e-5
1.411,   3.502e-5
1.413,   3.820e-5
1.415,   4.189e-5
1.417,   4.592e-5
1.419,   5.035e-5
1.421,   5.523e-5
1.423,   6.056e-5
1.425,   6.638e-5
1.427,   7.275e-5
1.429,   7.982e-5
1.431,   8.741e-5
1.433,   9.573e-5
1.435,   1.048e-4
1.437,   1.147e-4
1.439,   1.255e-4
1.441,   1.372e-4
1.443,   1.499e-4
1.445,   1.639e-4
1.447,   1.788e-4
1.449,   1.951e-4
1.451,   2.126e-4
1.453,   2.318e-4
1.455,   2.525e-4
1.457,   2.749e-4
1.459,   2.990e-4
1.461,   3.252e-4
1.463,   3.531e-4
1.465,   3.831e-4
1.467,   4.157e-4
1.469,   4.504e-4
1.471,   4.877e-4
1.473,   5.277e-4
1.475,   5.702e-4
1.477,   6.155e-4
1.479,   6.640e-4
1.481,   7.150e-4
1.483,   7.687e-4
1.485,   8.258e-4
1.487,   8.864e-4
1.489,   9.502e-4
1.491,   1.017e-3
1.493,   1.087e-3
1.495,   1.160e-3
1.497,   1.237e-3
1.499,   1.317e-3
1.501,   1.399e-3
1.503,   1.484e-3
1.505,   1.572e-3
1.507,   1.663e-3
1.509,   1.753e-3
1.511,   1.847e-3
1.513,   1.945e-3
1.515,   2.046e-3
1.517,   2.148e-3
1.519,   2.254e-3
1.521,   2.361e-3
1.523,   2.470e-3
1.525,   2.585e-3
1.527,   2.697e-3
1.529,   2.810e-3
1.531,   2.926e-3
1.533,   3.046e-3
1.535,   3.160e-3
1.537,   3.272e-3
1.539,   3.384e-3
1.541,   3.497e-3
1.543,   3.603e-3
1.545,   3.714e-3
1.547,   3.823e-3
1.549,   3.929e-3
1.551,   4.035e-3
1.553,   4.146e-3
1.555,   4.252e-3
1.557,   4.366e-3
1.559,   4.471e-3
1.561,   4.568e-3
1.563,   4.688e-3
1.565,   4.788e-3
1.567,   4.886e-3
1.569,   4.982e-3
1.571,   5.087e-3
1.573,   5.191e-3
1.575,   5.273e-3
1.577,   5.360e-3
1.579,   5.456e-3
1.581,   5.541e-3
1.583,   5.621e-3
1.585,   5.679e-3
1.587,   5.754e-3
1.589,   5.822e-3
1.591,   5.876e-3
1.593,   5.989e-3
1.595,   6.059e-3
1.597,   6.094e-3
1.599,   6.105e-3
1.601,   6.145e-3
1.603,   6.168e-3
1.605,   6.175e-3
1.607,   6.191e-3
1.609,   6.182e-3
1.611,   6.181e-3
1.613,   6.201e-3
1.615,   6.214e-3
1.616,   6.192e-3