File: Experimental Records and Raw Data/batch3/final400/B3_VARIANCE_400_#4_High_Quality(#25)-237mV.txt
Feb. 20, 2023   15:09:46
Linear Sweep Voltammetry
File: d:\current work\al_oer\electrochemical test data\batch 3\400\B3_VARIANCE_400_#4_High_Quality(#25)-237mV.txt
Data Source:  Experiment
Instrument Model:  CHI660E
Header:
Note:

Init E (V) = 1.099

Final E (V) = 1.513

Scan Rate (V/s) = 0.010
Sample Interval (V) = 0.001
Quiet Time (sec) = 2
Sensitivity (A/V) = 0.001
Comp R (ohm) = 6.1

Results:

Channel 1:

Potential/V, Current/A
1.099,   1.921e-4
1.101,   1.718e-4
1.103,   1.538e-4
1.105,   1.392e-4
1.107,   1.276e-4
1.109,   1.179e-4
1.111,   1.098e-4
1.113,   1.030e-4
1.115,   9.711e-5
1.117,   9.209e-5
1.119,   8.773e-5
1.121,   8.383e-5
1.123,   8.046e-5
1.125,   7.753e-5
1.127,   7.473e-5
1.129,   7.234e-5
1.131,   7.023e-5
1.133,   6.835e-5
1.135,   6.663e-5
1.137,   6.506e-5
1.139,   6.366e-5
1.141,   6.242e-5
1.143,   6.128e-5
1.145,   6.030e-5
1.147,   5.931e-5
1.149,   5.849e-5
1.151,   5.776e-5
1.153,   5.706e-5
1.155,   5.645e-5
1.157,   5.591e-5
1.159,   5.544e-5
1.161,   5.495e-5
1.163,   5.456e-5
1.165,   5.432e-5
1.167,   5.394e-5
1.169,   5.366e-5
1.171,   5.344e-5
1.173,   5.318e-5
1.175,   5.303e-5
1.177,   5.288e-5
1.179,   5.272e-5
1.181,   5.267e-5
1.183,   5.262e-5
1.185,   5.252e-5
1.187,   5.248e-5
1.189,   5.247e-5
1.191,   5.250e-5
1.193,   5.252e-5
1.195,   5.248e-5
1.197,   5.268e-5
1.199,   5.269e-5
1.201,   5.271e-5
1.203,   5.284e-5
1.205,   5.288e-5
1.207,   5.304e-5
1.209,   5.315e-5
1.211,   5.322e-5
1.213,   5.338e-5
1.215,   5.358e-5
1.217,   5.368e-5
1.219,   5.382e-5
1.221,   5.398e-5
1.223,   5.417e-5
1.225,   5.422e-5
1.227,   5.438e-5
1.229,   5.464e-5
1.231,   5.475e-5
1.233,   5.489e-5
1.235,   5.510e-5
1.237,   5.523e-5
1.239,   5.545e-5
1.241,   5.561e-5
1.243,   5.574e-5
1.245,   5.596e-5
1.247,   5.613e-5
1.249,   5.624e-5
1.251,   5.642e-5
1.253,   5.665e-5
1.255,   5.682e-5
1.257,   5.697e-5
1.259,   5.718e-5
1.261,   5.744e-5
1.263,   5.760e-5
1.265,   5.774e-5
1.267,   5.794e-5
1.269,   5.816e-5
1.271,   5.840e-5
1.273,   5.864e-5
1.275,   5.883e-5
1.277,   5.908e-5
1.279,   5.927e-5
1.281,   5.951e-5
1.283,   5.972e-5
1.285,   6.002e-5
1.287,   6.027e-5
1.289,   6.046e-5
1.291,   6.071e-5
1.293,   6.102e-5
1.295,   6.130e-5
1.297,   6.158e-5
1.299,   6.186e-5
1.301,   6.215e-5
1.303,   6.248e-5
1.305,   6.280e-5
1.307,   6.305e-5
1.309,   6.348e-5
1.311,   6.383e-5
1.313,   6.418e-5
1.315,   6.457e-5
1.317,   6.504e-5
1.319,   6.544e-5
1.321,   6.586e-5
1.323,   6.619e-5
1.325,   6.679e-5
1.327,   6.725e-5
1.329,   6.768e-5
1.331,   6.819e-5
1.333,   6.874e-5
1.335,   6.925e-5
1.337,   6.986e-5
1.339,   7.035e-5
1.341,   7.098e-5
1.343,   7.163e-5
1.345,   7.229e-5
1.347,   7.302e-5
1.349,   7.373e-5
1.351,   7.455e-5
1.353,   7.538e-5
1.355,   7.624e-5
1.357,   7.727e-5
1.359,   7.820e-5
1.361,   7.923e-5
1.363,   8.042e-5
1.365,   8.161e-5
1.367,   8.294e-5
1.369,   8.440e-5
1.371,   8.593e-5
1.373,   8.774e-5
1.375,   8.982e-5
1.377,   9.191e-5
1.379,   9.426e-5
1.381,   9.705e-5
1.383,   1.001e-4
1.385,   1.035e-4
1.387,   1.074e-4
1.389,   1.121e-4
1.391,   1.170e-4
1.393,   1.226e-4
1.395,   1.290e-4
1.397,   1.361e-4
1.399,   1.443e-4
1.401,   1.533e-4
1.403,   1.635e-4
1.405,   1.749e-4
1.407,   1.875e-4
1.409,   2.015e-4
1.411,   2.172e-4
1.413,   2.347e-4
1.415,   2.542e-4
1.417,   2.757e-4
1.419,   2.993e-4
1.421,   3.255e-4
1.423,   3.540e-4
1.425,   3.854e-4
1.427,   4.201e-4
1.429,   4.576e-4
1.431,   4.987e-4
1.433,   5.430e-4
1.435,   5.911e-4
1.437,   6.429e-4
1.439,   6.989e-4
1.441,   7.587e-4
1.443,   8.231e-4
1.445,   8.914e-4
1.447,   9.639e-4
1.449,   1.041e-3
1.451,   1.122e-3
1.453,   1.210e-3
1.455,   1.300e-3
1.457,   1.395e-3
1.459,   1.494e-3
1.461,   1.597e-3
1.463,   1.703e-3
1.465,   1.814e-3
1.467,   1.929e-3
1.469,   2.048e-3
1.471,   2.174e-3
1.473,   2.297e-3
1.475,   2.426e-3
1.477,   2.559e-3
1.479,   2.695e-3
1.481,   2.832e-3
1.483,   2.971e-3
1.485,   3.110e-3
1.487,   3.252e-3
1.489,   3.395e-3
1.491,   3.540e-3
1.493,   3.683e-3
1.495,   3.829e-3
1.497,   3.976e-3
1.499,   4.119e-3
1.501,   4.260e-3
1.503,   4.403e-3
1.505,   4.549e-3
1.507,   4.693e-3
1.509,   4.831e-3
1.511,   4.968e-3
1.513,   5.105e-3