File: Experimental Records and Raw Data/batch3/final400/B3_VARIANCE_400_#5_Full(#13)-212mV.txt
Feb. 20, 2023   15:36:19
Linear Sweep Voltammetry
File: d:\current work\al_oer\electrochemical test data\batch 3\400\B3_VARIANCE_400_#5_Full(#13)-212mV.txt
Data Source:  Experiment
Instrument Model:  CHI660E
Header:
Note:

Init E (V) = 1.099

Final E (V) = 1.470

Scan Rate (V/s) = 0.010
Sample Interval (V) = 0.001
Quiet Time (sec) = 2
Sensitivity (A/V) = 0.001
Comp R (ohm) = 5.6

Results:

Channel 1:

Potential/V, Current/A
1.099,   1.624e-4
1.101,   1.822e-4
1.103,   1.708e-4
1.105,   1.620e-4
1.107,   1.557e-4
1.109,   1.505e-4
1.111,   1.462e-4
1.113,   1.427e-4
1.115,   1.398e-4
1.117,   1.381e-4
1.119,   1.365e-4
1.121,   1.348e-4
1.123,   1.337e-4
1.125,   1.333e-4
1.127,   1.325e-4
1.129,   1.319e-4
1.131,   1.313e-4
1.133,   1.318e-4
1.135,   1.321e-4
1.137,   1.326e-4
1.139,   1.322e-4
1.141,   1.335e-4
1.143,   1.343e-4
1.145,   1.350e-4
1.147,   1.351e-4
1.149,   1.354e-4
1.151,   1.371e-4
1.153,   1.386e-4
1.155,   1.367e-4
1.157,   1.420e-4
1.159,   1.445e-4
1.161,   1.402e-4
1.163,   1.413e-4
1.165,   1.433e-4
1.167,   1.442e-4
1.169,   1.479e-4
1.171,   1.562e-4
1.173,   1.508e-4
1.175,   1.560e-4
1.177,   1.558e-4
1.179,   1.634e-4
1.181,   1.574e-4
1.183,   1.646e-4
1.185,   1.608e-4
1.187,   1.670e-4
1.189,   1.726e-4
1.191,   1.716e-4
1.193,   1.666e-4
1.195,   1.660e-4
1.197,   1.734e-4
1.199,   1.838e-4
1.201,   1.873e-4
1.203,   1.788e-4
1.205,   1.877e-4
1.207,   1.912e-4
1.209,   1.801e-4
1.211,   1.913e-4
1.213,   1.791e-4
1.215,   1.865e-4
1.217,   1.787e-4
1.219,   1.889e-4
1.221,   1.893e-4
1.223,   1.975e-4
1.225,   1.809e-4
1.227,   1.923e-4
1.229,   1.788e-4
1.231,   2.025e-4
1.233,   1.804e-4
1.235,   1.895e-4
1.237,   1.813e-4
1.239,   1.895e-4
1.241,   1.911e-4
1.243,   1.727e-4
1.245,   1.881e-4
1.247,   1.741e-4
1.249,   1.941e-4
1.251,   1.705e-4
1.253,   1.826e-4
1.255,   1.649e-4
1.257,   1.864e-4
1.259,   1.729e-4
1.261,   1.843e-4
1.263,   1.605e-4
1.265,   1.736e-4
1.267,   1.567e-4
1.269,   1.680e-4
1.271,   1.663e-4
1.273,   1.657e-4
1.275,   1.762e-4
1.277,   1.626e-4
1.279,   1.680e-4
1.281,   1.677e-4
1.283,   1.545e-4
1.285,   1.625e-4
1.287,   1.631e-4
1.289,   1.541e-4
1.291,   1.566e-4
1.293,   1.622e-4
1.295,   1.539e-4
1.297,   1.523e-4
1.299,   1.555e-4
1.301,   1.544e-4
1.303,   1.443e-4
1.305,   1.391e-4
1.307,   1.373e-4
1.309,   1.404e-4
1.311,   1.436e-4
1.313,   1.419e-4
1.315,   1.447e-4
1.317,   1.482e-4
1.319,   1.465e-4
1.321,   1.400e-4
1.323,   1.319e-4
1.325,   1.344e-4
1.327,   1.385e-4
1.329,   1.440e-4
1.331,   1.481e-4
1.333,   1.449e-4
1.335,   1.340e-4
1.337,   1.302e-4
1.339,   1.343e-4
1.341,   1.429e-4
1.343,   1.465e-4
1.345,   1.408e-4
1.347,   1.437e-4
1.349,   1.507e-4
1.351,   1.524e-4
1.353,   1.439e-4
1.355,   1.462e-4
1.357,   1.546e-4
1.359,   1.437e-4
1.361,   1.508e-4
1.363,   1.610e-4
1.365,   1.499e-4
1.367,   1.637e-4
1.369,   1.436e-4
1.371,   1.610e-4
1.373,   1.483e-4
1.375,   1.773e-4
1.377,   1.604e-4
1.379,   1.569e-4
1.381,   1.888e-4
1.383,   1.806e-4
1.385,   1.767e-4
1.387,   1.740e-4
1.389,   1.881e-4
1.391,   1.935e-4
1.393,   2.042e-4
1.395,   2.120e-4
1.397,   2.287e-4
1.399,   2.620e-4
1.401,   2.813e-4
1.403,   2.746e-4
1.405,   3.186e-4
1.407,   3.226e-4
1.409,   3.688e-4
1.411,   3.928e-4
1.413,   4.189e-4
1.415,   4.600e-4
1.417,   5.120e-4
1.419,   5.612e-4
1.421,   6.209e-4
1.423,   6.745e-4
1.425,   7.408e-4
1.427,   8.424e-4
1.429,   8.968e-4
1.431,   1.033e-3
1.433,   1.168e-3
1.435,   1.268e-3
1.437,   1.401e-3
1.439,   1.559e-3
1.441,   1.786e-3
1.443,   2.034e-3
1.445,   2.222e-3
1.447,   2.531e-3
1.449,   2.816e-3
1.451,   3.227e-3
1.453,   3.693e-3
1.455,   4.175e-3
1.457,   4.757e-3
1.459,   5.453e-3
1.461,   6.202e-3
1.463,   7.077e-3
1.465,   8.003e-3
1.467,   9.040e-3
1.469,   1.004e-2
1.470,   1.006e-2