File: Experimental Records and Raw Data/batch3/final400/B3_VARIANCE_400_#4_Full(#12)-273mV.txt
Feb. 21, 2023   16:03:47
Linear Sweep Voltammetry
File: d:\current work\al_oer\electrochemical test data\batch 3\400\B3_VARIANCE_400_#4_Full(#12)-273mV.txt
Data Source:  Experiment
Instrument Model:  CHI660E
Header:
Note:

Init E (V) = 1.090

Final E (V) = 1.789

Scan Rate (V/s) = 0.010
Sample Interval (V) = 0.001
Quiet Time (sec) = 2
Sensitivity (A/V) = 0.001
Comp R (ohm) = 5.2

Results:

Channel 1:
Ep = 1.466V
ip = 8.140e-3A
Ah = 1.825e-1C

Potential/V, Current/A
1.090,   4.797e-5
1.093,   3.970e-5
1.096,   3.331e-5
1.099,   2.869e-5
1.102,   2.532e-5
1.105,   2.279e-5
1.108,   2.077e-5
1.111,   1.925e-5
1.114,   1.799e-5
1.117,   1.694e-5
1.120,   1.617e-5
1.123,   1.547e-5
1.126,   1.488e-5
1.129,   1.439e-5
1.132,   1.395e-5
1.135,   1.361e-5
1.138,   1.333e-5
1.141,   1.308e-5
1.144,   1.284e-5
1.147,   1.266e-5
1.150,   1.253e-5
1.153,   1.239e-5
1.156,   1.231e-5
1.159,   1.219e-5
1.162,   1.210e-5
1.165,   1.205e-5
1.168,   1.196e-5
1.171,   1.193e-5
1.174,   1.192e-5
1.177,   1.188e-5
1.180,   1.187e-5
1.183,   1.184e-5
1.186,   1.183e-5
1.189,   1.185e-5
1.192,   1.183e-5
1.195,   1.187e-5
1.198,   1.190e-5
1.201,   1.190e-5
1.204,   1.193e-5
1.207,   1.194e-5
1.210,   1.195e-5
1.213,   1.199e-5
1.216,   1.203e-5
1.219,   1.206e-5
1.222,   1.211e-5
1.225,   1.213e-5
1.228,   1.216e-5
1.231,   1.219e-5
1.234,   1.225e-5
1.237,   1.225e-5
1.240,   1.231e-5
1.243,   1.234e-5
1.246,   1.244e-5
1.249,   1.243e-5
1.252,   1.251e-5
1.255,   1.254e-5
1.258,   1.256e-5
1.261,   1.259e-5
1.264,   1.270e-5
1.267,   1.274e-5
1.270,   1.278e-5
1.273,   1.283e-5
1.276,   1.286e-5
1.279,   1.294e-5
1.282,   1.296e-5
1.285,   1.306e-5
1.288,   1.313e-5
1.291,   1.317e-5
1.294,   1.327e-5
1.297,   1.334e-5
1.300,   1.340e-5
1.303,   1.352e-5
1.306,   1.358e-5
1.309,   1.363e-5
1.312,   1.372e-5
1.315,   1.388e-5
1.318,   1.394e-5
1.321,   1.403e-5
1.324,   1.414e-5
1.327,   1.423e-5
1.330,   1.433e-5
1.333,   1.447e-5
1.336,   1.457e-5
1.339,   1.478e-5
1.342,   1.496e-5
1.345,   1.515e-5
1.348,   1.535e-5
1.351,   1.555e-5
1.354,   1.582e-5
1.357,   1.614e-5
1.360,   1.652e-5
1.363,   1.690e-5
1.366,   1.747e-5
1.369,   1.803e-5
1.372,   1.877e-5
1.375,   1.963e-5
1.378,   2.074e-5
1.381,   2.204e-5
1.384,   2.365e-5
1.387,   2.564e-5
1.390,   2.798e-5
1.393,   3.089e-5
1.396,   3.430e-5
1.399,   3.828e-5
1.402,   4.304e-5
1.405,   4.875e-5
1.408,   5.534e-5
1.411,   6.310e-5
1.414,   7.200e-5
1.417,   8.237e-5
1.420,   9.405e-5
1.423,   1.074e-4
1.426,   1.226e-4
1.429,   1.397e-4
1.432,   1.591e-4
1.435,   1.808e-4
1.438,   2.050e-4
1.441,   2.323e-4
1.444,   2.628e-4
1.447,   2.966e-4
1.450,   3.343e-4
1.453,   3.760e-4
1.456,   4.223e-4
1.459,   4.735e-4
1.462,   5.296e-4
1.465,   5.915e-4
1.468,   6.591e-4
1.471,   7.328e-4
1.474,   8.124e-4
1.477,   8.979e-4
1.480,   9.896e-4
1.483,   1.088e-3
1.486,   1.192e-3
1.489,   1.303e-3
1.492,   1.420e-3
1.495,   1.543e-3
1.498,   1.673e-3
1.501,   1.809e-3
1.504,   1.951e-3
1.507,   2.098e-3
1.510,   2.250e-3
1.513,   2.409e-3
1.516,   2.571e-3
1.519,   2.738e-3
1.522,   2.911e-3
1.525,   3.085e-3
1.528,   3.261e-3
1.531,   3.441e-3
1.534,   3.626e-3
1.537,   3.811e-3
1.540,   3.999e-3
1.543,   4.189e-3
1.546,   4.384e-3
1.549,   4.579e-3
1.552,   4.771e-3
1.555,   4.969e-3
1.558,   5.168e-3
1.561,   5.360e-3
1.564,   5.546e-3
1.567,   5.740e-3
1.570,   5.930e-3
1.573,   6.109e-3
1.576,   6.283e-3
1.579,   6.465e-3
1.582,   6.628e-3
1.585,   6.789e-3
1.588,   6.953e-3
1.591,   7.098e-3
1.594,   7.242e-3
1.597,   7.383e-3
1.600,   7.509e-3
1.603,   7.640e-3
1.606,   7.762e-3
1.609,   7.863e-3
1.612,   7.981e-3
1.615,   8.064e-3
1.618,   8.158e-3
1.621,   8.278e-3
1.624,   8.315e-3
1.627,   8.354e-3
1.630,   8.412e-3
1.633,   8.449e-3
1.636,   8.470e-3
1.639,   8.491e-3
1.642,   8.498e-3
1.645,   8.503e-3
1.648,   8.511e-3
1.651,   8.498e-3
1.654,   8.589e-3
1.657,   8.549e-3
1.660,   8.501e-3
1.663,   8.452e-3
1.666,   8.385e-3
1.669,   8.437e-3
1.672,   8.434e-3
1.675,   8.307e-3
1.678,   8.200e-3
1.681,   8.085e-3
1.684,   7.974e-3
1.687,   7.859e-3
1.690,   7.749e-3
1.693,   7.643e-3
1.696,   7.555e-3
1.699,   7.522e-3
1.702,   7.379e-3
1.705,   7.239e-3
1.708,   7.097e-3
1.711,   6.960e-3
1.714,   6.823e-3
1.717,   6.687e-3
1.720,   6.547e-3
1.723,   6.411e-3
1.726,   6.274e-3
1.729,   6.133e-3
1.732,   5.996e-3
1.735,   5.857e-3
1.738,   5.718e-3
1.741,   5.581e-3
1.744,   5.446e-3
1.747,   5.309e-3
1.750,   5.177e-3
1.753,   5.045e-3
1.756,   4.912e-3
1.759,   4.780e-3
1.762,   4.651e-3
1.765,   4.523e-3
1.768,   4.400e-3
1.771,   4.274e-3
1.774,   4.150e-3
1.777,   4.025e-3
1.780,   3.910e-3
1.783,   3.792e-3
1.786,   3.675e-3
1.789,   3.573e-3