File: Experimental Records and Raw Data/batch5/final500/B5_BEST_500_#1_Full(#1)-258mV.txt
June 8, 2023   20:57:59
Linear Sweep Voltammetry
File: d:\current work\al_oer\electrochemical test data\batch 5\500\B5_BEST_500_#1_Full(#1)-258mV.txt
Data Source:  Experiment
Instrument Model:  CHI660E
Header:
Note:

Init E (V) = 0.905

Final E (V) = 1.551

Scan Rate (V/s) = 0.010
Sample Interval (V) = 0.001
Quiet Time (sec) = 2
Sensitivity (A/V) = 0.001
Comp R (ohm) = 4.2

Results:

Channel 1:

Potential/V, Current/A
0.905,   1.801e-4
0.908,   2.088e-4
0.911,   2.074e-4
0.914,   1.999e-4
0.917,   1.949e-4
0.920,   1.924e-4
0.923,   1.939e-4
0.926,   1.891e-4
0.929,   1.845e-4
0.932,   1.814e-4
0.935,   1.846e-4
0.938,   1.786e-4
0.941,   1.753e-4
0.944,   1.722e-4
0.947,   1.738e-4
0.950,   1.706e-4
0.953,   1.690e-4
0.956,   1.659e-4
0.959,   1.682e-4
0.962,   1.654e-4
0.965,   1.635e-4
0.968,   1.594e-4
0.971,   1.606e-4
0.974,   1.603e-4
0.977,   1.566e-4
0.980,   1.583e-4
0.983,   1.554e-4
0.986,   1.562e-4
0.989,   1.524e-4
0.992,   1.540e-4
0.995,   1.507e-4
0.998,   1.524e-4
1.001,   1.484e-4
1.004,   1.506e-4
1.007,   1.496e-4
1.010,   1.496e-4
1.013,   1.456e-4
1.016,   1.462e-4
1.019,   1.467e-4
1.022,   1.463e-4
1.025,   1.450e-4
1.028,   1.438e-4
1.031,   1.448e-4
1.034,   1.419e-4
1.037,   1.447e-4
1.040,   1.413e-4
1.043,   1.440e-4
1.046,   1.400e-4
1.049,   1.426e-4
1.052,   1.404e-4
1.055,   1.426e-4
1.058,   1.379e-4
1.061,   1.416e-4
1.064,   1.397e-4
1.067,   1.405e-4
1.070,   1.370e-4
1.073,   1.406e-4
1.076,   1.403e-4
1.079,   1.434e-4
1.082,   1.367e-4
1.085,   1.391e-4
1.088,   1.399e-4
1.091,   1.417e-4
1.094,   1.379e-4
1.097,   1.388e-4
1.100,   1.426e-4
1.103,   1.401e-4
1.106,   1.388e-4
1.109,   1.382e-4
1.112,   1.428e-4
1.115,   1.419e-4
1.118,   1.407e-4
1.121,   1.393e-4
1.124,   1.436e-4
1.127,   1.432e-4
1.130,   1.432e-4
1.133,   1.398e-4
1.136,   1.444e-4
1.139,   1.450e-4
1.142,   1.456e-4
1.145,   1.423e-4
1.148,   1.456e-4
1.151,   1.483e-4
1.154,   1.481e-4
1.157,   1.455e-4
1.160,   1.466e-4
1.163,   1.519e-4
1.166,   1.501e-4
1.169,   1.503e-4
1.172,   1.494e-4
1.175,   1.543e-4
1.178,   1.535e-4
1.181,   1.517e-4
1.184,   1.514e-4
1.187,   1.565e-4
1.190,   1.563e-4
1.193,   1.586e-4
1.196,   1.535e-4
1.199,   1.598e-4
1.202,   1.619e-4
1.205,   1.643e-4
1.208,   1.584e-4
1.211,   1.619e-4
1.214,   1.679e-4
1.217,   1.704e-4
1.220,   1.646e-4
1.223,   1.670e-4
1.226,   1.724e-4
1.229,   1.726e-4
1.232,   1.696e-4
1.235,   1.702e-4
1.238,   1.773e-4
1.241,   1.783e-4
1.244,   1.767e-4
1.247,   1.781e-4
1.250,   1.815e-4
1.253,   1.830e-4
1.256,   1.825e-4
1.259,   1.802e-4
1.262,   1.835e-4
1.265,   1.891e-4
1.268,   1.894e-4
1.271,   1.852e-4
1.274,   1.869e-4
1.277,   1.936e-4
1.280,   1.948e-4
1.283,   1.882e-4
1.286,   1.931e-4
1.289,   1.996e-4
1.292,   2.014e-4
1.295,   1.951e-4
1.298,   1.951e-4
1.301,   1.996e-4
1.304,   2.041e-4
1.307,   2.051e-4
1.310,   1.992e-4
1.313,   2.046e-4
1.316,   2.073e-4
1.319,   2.093e-4
1.322,   2.014e-4
1.325,   2.076e-4
1.328,   2.078e-4
1.331,   2.129e-4
1.334,   2.055e-4
1.337,   2.108e-4
1.340,   2.145e-4
1.343,   2.166e-4
1.346,   2.136e-4
1.349,   2.154e-4
1.352,   2.175e-4
1.355,   2.220e-4
1.358,   2.200e-4
1.361,   2.154e-4
1.364,   2.221e-4
1.367,   2.247e-4
1.370,   2.245e-4
1.373,   2.182e-4
1.376,   2.254e-4
1.379,   2.320e-4
1.382,   2.313e-4
1.385,   2.256e-4
1.388,   2.327e-4
1.391,   2.397e-4
1.394,   2.397e-4
1.397,   2.372e-4
1.400,   2.412e-4
1.403,   2.549e-4
1.406,   2.501e-4
1.409,   2.507e-4
1.412,   2.517e-4
1.415,   2.710e-4
1.418,   2.658e-4
1.421,   2.693e-4
1.424,   2.692e-4
1.427,   2.916e-4
1.430,   3.048e-4
1.433,   3.034e-4
1.436,   3.098e-4
1.439,   3.389e-4
1.442,   3.642e-4
1.445,   3.652e-4
1.448,   3.813e-4
1.451,   4.256e-4
1.454,   4.771e-4
1.457,   4.905e-4
1.460,   5.432e-4
1.463,   6.111e-4
1.466,   7.254e-4
1.469,   7.672e-4
1.472,   8.532e-4
1.475,   9.842e-4
1.478,   1.210e-3
1.481,   1.317e-3
1.484,   1.476e-3
1.487,   1.703e-3
1.490,   2.096e-3
1.493,   2.330e-3
1.496,   2.561e-3
1.499,   2.970e-3
1.502,   3.628e-3
1.505,   4.108e-3
1.508,   4.362e-3
1.511,   4.947e-3
1.514,   5.758e-3
1.517,   6.380e-3
1.520,   6.687e-3
1.523,   7.444e-3
1.526,   8.399e-3
1.529,   9.009e-3
1.532,   9.319e-3
1.535,   9.906e-3
1.538,   1.005e-2
1.541,   1.007e-2
1.544,   1.007e-2
1.547,   1.007e-2
1.550,   1.007e-2
1.551,   1.007e-2