File: Experimental Records and Raw Data/batch5/final500/B5_BEST_500_#1_Full(#16)-182mV.txt
June 9, 2023   16:53:15
Linear Sweep Voltammetry
File: d:\current work\al_oer\electrochemical test data\batch 5\500\B5_BEST_500_#1_Full(#16)-182mV.txt
Data Source:  Experiment
Instrument Model:  CHI660E
Header:
Note:

Init E (V) = 0.902

Final E (V) = 1.471

Scan Rate (V/s) = 0.010
Sample Interval (V) = 0.001
Quiet Time (sec) = 2
Sensitivity (A/V) = 0.001
Comp R (ohm) = 3.7

Results:

Channel 1:

Potential/V, Current/A
0.902,   8.788e-4
0.904,   1.051e-3
0.906,   1.037e-3
0.908,   1.007e-3
0.910,   1.011e-3
0.912,   9.612e-4
0.914,   9.763e-4
0.916,   9.173e-4
0.918,   9.495e-4
0.920,   8.876e-4
0.922,   9.204e-4
0.924,   8.665e-4
0.926,   8.997e-4
0.928,   8.353e-4
0.930,   8.744e-4
0.932,   8.243e-4
0.934,   8.608e-4
0.936,   8.067e-4
0.938,   8.379e-4
0.940,   7.921e-4
0.942,   8.275e-4
0.944,   7.788e-4
0.946,   8.061e-4
0.948,   7.656e-4
0.950,   7.954e-4
0.952,   7.535e-4
0.954,   7.801e-4
0.956,   7.467e-4
0.958,   7.719e-4
0.960,   7.361e-4
0.962,   7.611e-4
0.964,   7.291e-4
0.966,   7.516e-4
0.968,   7.243e-4
0.970,   7.345e-4
0.972,   7.176e-4
0.974,   7.355e-4
0.976,   7.044e-4
0.978,   7.274e-4
0.980,   7.026e-4
0.982,   7.228e-4
0.984,   6.977e-4
0.986,   7.133e-4
0.988,   6.951e-4
0.990,   7.067e-4
0.992,   6.919e-4
0.994,   7.009e-4
0.996,   6.871e-4
0.998,   6.959e-4
1.000,   6.901e-4
1.002,   6.883e-4
1.004,   6.824e-4
1.006,   6.878e-4
1.008,   6.762e-4
1.010,   6.817e-4
1.012,   6.696e-4
1.014,   6.814e-4
1.016,   6.730e-4
1.018,   6.760e-4
1.020,   6.739e-4
1.022,   6.779e-4
1.024,   6.699e-4
1.026,   6.743e-4
1.028,   6.670e-4
1.030,   6.708e-4
1.032,   6.724e-4
1.034,   6.680e-4
1.036,   6.775e-4
1.038,   6.681e-4
1.040,   6.736e-4
1.042,   6.664e-4
1.044,   6.765e-4
1.046,   6.677e-4
1.048,   6.802e-4
1.050,   6.653e-4
1.052,   6.851e-4
1.054,   6.668e-4
1.056,   6.790e-4
1.058,   6.679e-4
1.060,   6.851e-4
1.062,   6.713e-4
1.064,   6.874e-4
1.066,   6.667e-4
1.068,   6.893e-4
1.070,   6.725e-4
1.072,   6.902e-4
1.074,   6.788e-4
1.076,   6.920e-4
1.078,   6.763e-4
1.080,   6.973e-4
1.082,   6.738e-4
1.084,   7.080e-4
1.086,   6.802e-4
1.088,   7.033e-4
1.090,   6.766e-4
1.092,   7.081e-4
1.094,   6.822e-4
1.096,   7.078e-4
1.098,   6.897e-4
1.100,   7.076e-4
1.102,   6.895e-4
1.104,   7.086e-4
1.106,   6.914e-4
1.108,   7.091e-4
1.110,   6.987e-4
1.112,   7.138e-4
1.114,   6.996e-4
1.116,   7.227e-4
1.118,   7.086e-4
1.120,   7.213e-4
1.122,   7.094e-4
1.124,   7.265e-4
1.126,   7.121e-4
1.128,   7.299e-4
1.130,   7.099e-4
1.132,   7.318e-4
1.134,   7.132e-4
1.136,   7.474e-4
1.138,   7.211e-4
1.140,   7.468e-4
1.142,   7.260e-4
1.144,   7.472e-4
1.146,   7.218e-4
1.148,   7.551e-4
1.150,   7.300e-4
1.152,   7.559e-4
1.154,   7.327e-4
1.156,   7.552e-4
1.158,   7.456e-4
1.160,   7.569e-4
1.162,   7.505e-4
1.164,   7.680e-4
1.166,   7.602e-4
1.168,   7.604e-4
1.170,   7.662e-4
1.172,   7.648e-4
1.174,   7.732e-4
1.176,   7.694e-4
1.178,   7.785e-4
1.180,   7.800e-4
1.182,   7.888e-4
1.184,   7.790e-4
1.186,   7.921e-4
1.188,   7.949e-4
1.190,   8.033e-4
1.192,   7.988e-4
1.194,   7.994e-4
1.196,   8.067e-4
1.198,   8.083e-4
1.200,   8.095e-4
1.202,   8.185e-4
1.204,   8.106e-4
1.206,   8.259e-4
1.208,   8.239e-4
1.210,   8.323e-4
1.212,   8.360e-4
1.214,   8.411e-4
1.216,   8.486e-4
1.218,   8.464e-4
1.220,   8.408e-4
1.222,   8.683e-4
1.224,   8.638e-4
1.226,   8.703e-4
1.228,   8.527e-4
1.230,   8.912e-4
1.232,   8.536e-4
1.234,   9.005e-4
1.236,   8.738e-4
1.238,   9.000e-4
1.240,   8.755e-4
1.242,   9.134e-4
1.244,   8.929e-4
1.246,   9.200e-4
1.248,   8.907e-4
1.250,   9.291e-4
1.252,   8.974e-4
1.254,   9.302e-4
1.256,   9.071e-4
1.258,   9.468e-4
1.260,   9.138e-4
1.262,   9.501e-4
1.264,   9.214e-4
1.266,   9.449e-4
1.268,   9.293e-4
1.270,   9.603e-4
1.272,   9.303e-4
1.274,   9.675e-4
1.276,   9.329e-4
1.278,   9.708e-4
1.280,   9.349e-4
1.282,   9.794e-4
1.284,   9.447e-4
1.286,   9.857e-4
1.288,   9.585e-4
1.290,   9.733e-4
1.292,   9.487e-4
1.294,   9.937e-4
1.296,   9.493e-4
1.298,   9.930e-4
1.300,   9.625e-4
1.302,   9.888e-4
1.304,   9.695e-4
1.306,   9.946e-4
1.308,   9.767e-4
1.310,   1.009e-3
1.312,   9.871e-4
1.314,   1.008e-3
1.316,   9.788e-4
1.318,   1.013e-3
1.320,   9.914e-4
1.322,   1.015e-3
1.324,   1.004e-3
1.326,   1.027e-3
1.328,   1.006e-3
1.330,   1.027e-3
1.332,   1.025e-3
1.334,   1.029e-3
1.336,   1.027e-3
1.338,   1.046e-3
1.340,   1.035e-3
1.342,   1.056e-3
1.344,   1.049e-3
1.346,   1.070e-3
1.348,   1.066e-3
1.350,   1.084e-3
1.352,   1.078e-3
1.354,   1.096e-3
1.356,   1.094e-3
1.358,   1.111e-3
1.360,   1.113e-3
1.362,   1.126e-3
1.364,   1.133e-3
1.366,   1.153e-3
1.368,   1.160e-3
1.370,   1.147e-3
1.372,   1.204e-3
1.374,   1.184e-3
1.376,   1.240e-3
1.378,   1.219e-3
1.380,   1.285e-3
1.382,   1.255e-3
1.384,   1.323e-3
1.386,   1.308e-3
1.388,   1.385e-3
1.390,   1.371e-3
1.392,   1.448e-3
1.394,   1.436e-3
1.396,   1.518e-3
1.398,   1.527e-3
1.400,   1.614e-3
1.402,   1.617e-3
1.404,   1.730e-3
1.406,   1.742e-3
1.408,   1.855e-3
1.410,   1.899e-3
1.412,   2.014e-3
1.414,   2.068e-3
1.416,   2.228e-3
1.418,   2.297e-3
1.420,   2.439e-3
1.422,   2.533e-3
1.424,   2.725e-3
1.426,   2.868e-3
1.428,   3.106e-3
1.430,   3.268e-3
1.432,   3.572e-3
1.434,   3.743e-3
1.436,   4.144e-3
1.438,   4.438e-3
1.440,   4.887e-3
1.442,   5.185e-3
1.444,   5.790e-3
1.446,   6.250e-3
1.448,   6.981e-3
1.450,   7.445e-3
1.452,   8.351e-3
1.454,   8.922e-3
1.456,   9.759e-3
1.458,   1.007e-2
1.460,   1.007e-2
1.462,   1.007e-2
1.464,   1.007e-2
1.466,   1.007e-2
1.468,   1.007e-2
1.470,   1.007e-2
1.471,   1.007e-2