File: Experimental Records and Raw Data/batch5/final500/B5_BEST_500_#1_Full(#8)-215mV.txt
June 9, 2023   15:13:53
Linear Sweep Voltammetry
File: d:\current work\al_oer\electrochemical test data\batch 5\500\B5_BEST_500_#1_Full(#8)-215mV.txt
Data Source:  Experiment
Instrument Model:  CHI660E
Header:
Note:

Init E (V) = 0.897

Final E (V) = 1.509

Scan Rate (V/s) = 0.010
Sample Interval (V) = 0.001
Quiet Time (sec) = 2
Sensitivity (A/V) = 0.001
Comp R (ohm) = 4.7

Results:

Channel 1:

Potential/V, Current/A
0.897,   2.700e-4
0.900,   2.881e-4
0.903,   2.859e-4
0.906,   2.858e-4
0.909,   2.798e-4
0.912,   2.816e-4
0.915,   2.600e-4
0.918,   2.647e-4
0.921,   2.610e-4
0.924,   2.619e-4
0.927,   2.566e-4
0.930,   2.447e-4
0.933,   2.485e-4
0.936,   2.429e-4
0.939,   2.479e-4
0.942,   2.351e-4
0.945,   2.336e-4
0.948,   2.349e-4
0.951,   2.301e-4
0.954,   2.355e-4
0.957,   2.212e-4
0.960,   2.253e-4
0.963,   2.225e-4
0.966,   2.244e-4
0.969,   2.227e-4
0.972,   2.147e-4
0.975,   2.187e-4
0.978,   2.139e-4
0.981,   2.200e-4
0.984,   2.108e-4
0.987,   2.080e-4
0.990,   2.120e-4
0.993,   2.085e-4
0.996,   2.162e-4
0.999,   2.022e-4
1.002,   2.058e-4
1.005,   2.064e-4
1.008,   2.072e-4
1.011,   2.084e-4
1.014,   1.978e-4
1.017,   2.048e-4
1.020,   2.015e-4
1.023,   2.080e-4
1.026,   2.005e-4
1.029,   1.971e-4
1.032,   2.033e-4
1.035,   1.991e-4
1.038,   2.081e-4
1.041,   1.961e-4
1.044,   2.002e-4
1.047,   2.005e-4
1.050,   2.010e-4
1.053,   2.057e-4
1.056,   1.947e-4
1.059,   2.005e-4
1.062,   1.986e-4
1.065,   2.053e-4
1.068,   2.006e-4
1.071,   1.973e-4
1.074,   2.021e-4
1.077,   1.993e-4
1.080,   2.089e-4
1.083,   1.980e-4
1.086,   2.014e-4
1.089,   2.034e-4
1.092,   2.056e-4
1.095,   2.108e-4
1.098,   1.972e-4
1.101,   2.058e-4
1.104,   2.052e-4
1.107,   2.149e-4
1.110,   2.107e-4
1.113,   2.042e-4
1.116,   2.119e-4
1.119,   2.091e-4
1.122,   2.238e-4
1.125,   2.102e-4
1.128,   2.130e-4
1.131,   2.142e-4
1.134,   2.185e-4
1.137,   2.270e-4
1.140,   2.113e-4
1.143,   2.215e-4
1.146,   2.200e-4
1.149,   2.306e-4
1.152,   2.265e-4
1.155,   2.191e-4
1.158,   2.282e-4
1.161,   2.230e-4
1.164,   2.436e-4
1.167,   2.270e-4
1.170,   2.295e-4
1.173,   2.359e-4
1.176,   2.368e-4
1.179,   2.506e-4
1.182,   2.303e-4
1.185,   2.438e-4
1.188,   2.387e-4
1.191,   2.555e-4
1.194,   2.500e-4
1.197,   2.395e-4
1.200,   2.555e-4
1.203,   2.474e-4
1.206,   2.713e-4
1.209,   2.495e-4
1.212,   2.596e-4
1.215,   2.662e-4
1.218,   2.626e-4
1.221,   2.811e-4
1.224,   2.561e-4
1.227,   2.773e-4
1.230,   2.675e-4
1.233,   2.898e-4
1.236,   2.829e-4
1.239,   2.744e-4
1.242,   2.961e-4
1.245,   2.769e-4
1.248,   3.118e-4
1.251,   2.831e-4
1.254,   2.990e-4
1.257,   3.033e-4
1.260,   3.006e-4
1.263,   3.202e-4
1.266,   2.926e-4
1.269,   3.236e-4
1.272,   3.060e-4
1.275,   3.282e-4
1.278,   3.236e-4
1.281,   3.168e-4
1.284,   3.397e-4
1.287,   3.166e-4
1.290,   3.553e-4
1.293,   3.272e-4
1.296,   3.416e-4
1.299,   3.474e-4
1.302,   3.394e-4
1.305,   3.692e-4
1.308,   3.369e-4
1.311,   3.671e-4
1.314,   3.509e-4
1.317,   3.739e-4
1.320,   3.734e-4
1.323,   3.605e-4
1.326,   3.910e-4
1.329,   3.627e-4
1.332,   4.084e-4
1.335,   3.747e-4
1.338,   3.966e-4
1.341,   4.029e-4
1.344,   3.875e-4
1.347,   4.248e-4
1.350,   3.924e-4
1.353,   4.378e-4
1.356,   4.109e-4
1.359,   4.377e-4
1.362,   4.394e-4
1.365,   4.316e-4
1.368,   4.736e-4
1.371,   4.356e-4
1.374,   4.918e-4
1.377,   4.618e-4
1.380,   4.973e-4
1.383,   5.083e-4
1.386,   4.967e-4
1.389,   5.469e-4
1.392,   5.186e-4
1.395,   5.876e-4
1.398,   5.588e-4
1.401,   6.081e-4
1.404,   6.304e-4
1.407,   6.387e-4
1.410,   7.162e-4
1.413,   6.821e-4
1.416,   7.971e-4
1.419,   7.808e-4
1.422,   8.974e-4
1.425,   9.467e-4
1.428,   9.908e-4
1.431,   1.153e-3
1.434,   1.190e-3
1.437,   1.436e-3
1.440,   1.490e-3
1.443,   1.751e-3
1.446,   1.955e-3
1.449,   2.225e-3
1.452,   2.630e-3
1.455,   2.858e-3
1.458,   3.531e-3
1.461,   3.850e-3
1.464,   4.644e-3
1.467,   5.335e-3
1.470,   5.972e-3
1.473,   6.782e-3
1.476,   7.353e-3
1.479,   8.482e-3
1.482,   9.250e-3
1.485,   9.651e-3
1.488,   9.665e-3
1.491,   9.874e-3
1.494,   1.007e-2
1.497,   1.007e-2
1.500,   1.007e-2
1.503,   1.007e-2
1.506,   1.007e-2
1.509,   1.007e-2