File: Experimental Records and Raw Data/batch5/final500/B5_BEST_500_#1_Full(#6)-204mV.txt
June 9, 2023   15:36:32
Linear Sweep Voltammetry
File: d:\current work\al_oer\electrochemical test data\batch 5\500\B5_BEST_500_#1_Full(#6)-204mV.txt
Data Source:  Experiment
Instrument Model:  CHI660E
Header:
Note:

Init E (V) = 0.899

Final E (V) = 1.501

Scan Rate (V/s) = 0.010
Sample Interval (V) = 0.001
Quiet Time (sec) = 2
Sensitivity (A/V) = 0.001
Comp R (ohm) = 3.8

Results:

Channel 1:

Potential/V, Current/A
0.899,   3.713e-4
0.902,   4.630e-4
0.905,   4.574e-4
0.908,   4.370e-4
0.911,   4.392e-4
0.914,   4.246e-4
0.917,   4.354e-4
0.920,   4.289e-4
0.923,   4.096e-4
0.926,   4.158e-4
0.929,   4.038e-4
0.932,   4.157e-4
0.935,   4.074e-4
0.938,   3.931e-4
0.941,   4.012e-4
0.944,   3.892e-4
0.947,   3.996e-4
0.950,   3.932e-4
0.953,   3.824e-4
0.956,   3.898e-4
0.959,   3.828e-4
0.962,   3.888e-4
0.965,   3.867e-4
0.968,   3.723e-4
0.971,   3.846e-4
0.974,   3.684e-4
0.977,   3.850e-4
0.980,   3.804e-4
0.983,   3.677e-4
0.986,   3.735e-4
0.989,   3.613e-4
0.992,   3.768e-4
0.995,   3.759e-4
0.998,   3.664e-4
1.001,   3.722e-4
1.004,   3.604e-4
1.007,   3.740e-4
1.010,   3.740e-4
1.013,   3.643e-4
1.016,   3.668e-4
1.019,   3.589e-4
1.022,   3.732e-4
1.025,   3.748e-4
1.028,   3.637e-4
1.031,   3.655e-4
1.034,   3.560e-4
1.037,   3.759e-4
1.040,   3.747e-4
1.043,   3.660e-4
1.046,   3.713e-4
1.049,   3.645e-4
1.052,   3.791e-4
1.055,   3.820e-4
1.058,   3.697e-4
1.061,   3.756e-4
1.064,   3.654e-4
1.067,   3.823e-4
1.070,   3.868e-4
1.073,   3.719e-4
1.076,   3.794e-4
1.079,   3.702e-4
1.082,   3.842e-4
1.085,   3.879e-4
1.088,   3.824e-4
1.091,   3.916e-4
1.094,   3.772e-4
1.097,   3.941e-4
1.100,   3.982e-4
1.103,   3.892e-4
1.106,   4.000e-4
1.109,   3.869e-4
1.112,   4.018e-4
1.115,   4.060e-4
1.118,   4.039e-4
1.121,   4.118e-4
1.124,   3.911e-4
1.127,   4.039e-4
1.130,   4.112e-4
1.133,   4.143e-4
1.136,   4.257e-4
1.139,   4.101e-4
1.142,   4.284e-4
1.145,   4.288e-4
1.148,   4.295e-4
1.151,   4.390e-4
1.154,   4.225e-4
1.157,   4.416e-4
1.160,   4.459e-4
1.163,   4.456e-4
1.166,   4.527e-4
1.169,   4.439e-4
1.172,   4.586e-4
1.175,   4.685e-4
1.178,   4.593e-4
1.181,   4.742e-4
1.184,   4.521e-4
1.187,   4.719e-4
1.190,   4.851e-4
1.193,   4.779e-4
1.196,   4.931e-4
1.199,   4.786e-4
1.202,   4.975e-4
1.205,   5.077e-4
1.208,   4.969e-4
1.211,   5.171e-4
1.214,   4.991e-4
1.217,   5.268e-4
1.220,   5.276e-4
1.223,   5.184e-4
1.226,   5.361e-4
1.229,   5.228e-4
1.232,   5.401e-4
1.235,   5.530e-4
1.238,   5.444e-4
1.241,   5.590e-4
1.244,   5.443e-4
1.247,   5.607e-4
1.250,   5.701e-4
1.253,   5.631e-4
1.256,   5.810e-4
1.259,   5.636e-4
1.262,   5.808e-4
1.265,   5.896e-4
1.268,   5.778e-4
1.271,   5.860e-4
1.274,   5.735e-4
1.277,   6.041e-4
1.280,   6.162e-4
1.283,   5.971e-4
1.286,   6.005e-4
1.289,   5.930e-4
1.292,   6.213e-4
1.295,   6.316e-4
1.298,   6.072e-4
1.301,   6.032e-4
1.304,   6.046e-4
1.307,   6.444e-4
1.310,   6.538e-4
1.313,   6.202e-4
1.316,   6.201e-4
1.319,   6.174e-4
1.322,   6.634e-4
1.325,   6.690e-4
1.328,   6.397e-4
1.331,   6.413e-4
1.334,   6.436e-4
1.337,   6.779e-4
1.340,   6.885e-4
1.343,   6.660e-4
1.346,   6.768e-4
1.349,   6.686e-4
1.352,   7.046e-4
1.355,   7.255e-4
1.358,   6.995e-4
1.361,   7.026e-4
1.364,   7.010e-4
1.367,   7.478e-4
1.370,   7.585e-4
1.373,   7.508e-4
1.376,   7.662e-4
1.379,   7.593e-4
1.382,   8.010e-4
1.385,   8.344e-4
1.388,   8.247e-4
1.391,   8.467e-4
1.394,   8.498e-4
1.397,   9.031e-4
1.400,   9.536e-4
1.403,   9.468e-4
1.406,   9.947e-4
1.409,   1.014e-3
1.412,   1.104e-3
1.415,   1.183e-3
1.418,   1.213e-3
1.421,   1.292e-3
1.424,   1.375e-3
1.427,   1.575e-3
1.430,   1.745e-3
1.433,   1.845e-3
1.436,   2.040e-3
1.439,   2.274e-3
1.442,   2.666e-3
1.445,   3.066e-3
1.448,   3.384e-3
1.451,   3.883e-3
1.454,   4.433e-3
1.457,   5.299e-3
1.460,   6.194e-3
1.463,   6.899e-3
1.466,   7.842e-3
1.469,   8.627e-3
1.472,   9.624e-3
1.475,   1.006e-2
1.478,   1.007e-2
1.481,   1.007e-2
1.484,   1.007e-2
1.487,   1.007e-2
1.490,   1.007e-2
1.493,   1.007e-2
1.496,   1.007e-2
1.499,   1.007e-2
1.501,   1.007e-2