File: Experimental Records and Raw Data/batch5/final500/B5_BEST_500_#1_Full(#7)-225mV.txt
June 9, 2023   15:22:06
Linear Sweep Voltammetry
File: d:\current work\al_oer\electrochemical test data\batch 5\500\B5_BEST_500_#1_Full(#7)-225mV.txt
Data Source:  Experiment
Instrument Model:  CHI660E
Header:
Note:

Init E (V) = 0.900

Final E (V) = 1.543

Scan Rate (V/s) = 0.010
Sample Interval (V) = 0.001
Quiet Time (sec) = 2
Sensitivity (A/V) = 0.001
Comp R (ohm) = 4.6

Results:

Channel 1:

Potential/V, Current/A
0.900,   1.789e-4
0.903,   2.067e-4
0.906,   2.033e-4
0.909,   2.014e-4
0.912,   1.991e-4
0.915,   1.944e-4
0.918,   1.929e-4
0.921,   1.893e-4
0.924,   1.892e-4
0.927,   1.837e-4
0.930,   1.857e-4
0.933,   1.813e-4
0.936,   1.788e-4
0.939,   1.756e-4
0.942,   1.777e-4
0.945,   1.751e-4
0.948,   1.721e-4
0.951,   1.727e-4
0.954,   1.695e-4
0.957,   1.698e-4
0.960,   1.662e-4
0.963,   1.685e-4
0.966,   1.637e-4
0.969,   1.652e-4
0.972,   1.615e-4
0.975,   1.640e-4
0.978,   1.612e-4
0.981,   1.615e-4
0.984,   1.582e-4
0.987,   1.590e-4
0.990,   1.584e-4
0.993,   1.559e-4
0.996,   1.578e-4
0.999,   1.556e-4
1.002,   1.572e-4
1.005,   1.534e-4
1.008,   1.564e-4
1.011,   1.540e-4
1.014,   1.557e-4
1.017,   1.515e-4
1.020,   1.541e-4
1.023,   1.522e-4
1.026,   1.528e-4
1.029,   1.516e-4
1.032,   1.512e-4
1.035,   1.519e-4
1.038,   1.494e-4
1.041,   1.544e-4
1.044,   1.504e-4
1.047,   1.529e-4
1.050,   1.487e-4
1.053,   1.525e-4
1.056,   1.504e-4
1.059,   1.528e-4
1.062,   1.501e-4
1.065,   1.516e-4
1.068,   1.518e-4
1.071,   1.497e-4
1.074,   1.519e-4
1.077,   1.509e-4
1.080,   1.534e-4
1.083,   1.499e-4
1.086,   1.552e-4
1.089,   1.516e-4
1.092,   1.547e-4
1.095,   1.516e-4
1.098,   1.552e-4
1.101,   1.548e-4
1.104,   1.549e-4
1.107,   1.541e-4
1.110,   1.559e-4
1.113,   1.587e-4
1.116,   1.555e-4
1.119,   1.592e-4
1.122,   1.574e-4
1.125,   1.609e-4
1.128,   1.562e-4
1.131,   1.629e-4
1.134,   1.597e-4
1.137,   1.641e-4
1.140,   1.604e-4
1.143,   1.661e-4
1.146,   1.641e-4
1.149,   1.647e-4
1.152,   1.638e-4
1.155,   1.647e-4
1.158,   1.697e-4
1.161,   1.660e-4
1.164,   1.724e-4
1.167,   1.680e-4
1.170,   1.753e-4
1.173,   1.692e-4
1.176,   1.798e-4
1.179,   1.740e-4
1.182,   1.804e-4
1.185,   1.746e-4
1.188,   1.804e-4
1.191,   1.833e-4
1.194,   1.789e-4
1.197,   1.857e-4
1.200,   1.825e-4
1.203,   1.914e-4
1.206,   1.831e-4
1.209,   1.955e-4
1.212,   1.854e-4
1.215,   1.993e-4
1.218,   1.895e-4
1.221,   2.016e-4
1.224,   1.957e-4
1.227,   2.011e-4
1.230,   1.991e-4
1.233,   2.017e-4
1.236,   2.070e-4
1.239,   2.019e-4
1.242,   2.119e-4
1.245,   2.026e-4
1.248,   2.204e-4
1.251,   2.024e-4
1.254,   2.228e-4
1.257,   2.057e-4
1.260,   2.297e-4
1.263,   2.065e-4
1.266,   2.300e-4
1.269,   2.141e-4
1.272,   2.263e-4
1.275,   2.184e-4
1.278,   2.216e-4
1.281,   2.318e-4
1.284,   2.128e-4
1.287,   2.399e-4
1.290,   2.189e-4
1.293,   2.448e-4
1.296,   2.099e-4
1.299,   2.489e-4
1.302,   2.200e-4
1.305,   2.465e-4
1.308,   2.300e-4
1.311,   2.471e-4
1.314,   2.396e-4
1.317,   2.387e-4
1.320,   2.498e-4
1.323,   2.336e-4
1.326,   2.639e-4
1.329,   2.326e-4
1.332,   2.685e-4
1.335,   2.439e-4
1.338,   2.760e-4
1.341,   2.462e-4
1.344,   2.705e-4
1.347,   2.566e-4
1.350,   2.628e-4
1.353,   2.600e-4
1.356,   3.086e-4
1.359,   3.062e-4
1.362,   2.429e-4
1.365,   3.117e-4
1.368,   2.296e-4
1.371,   3.074e-4
1.374,   2.168e-4
1.377,   3.385e-4
1.380,   2.784e-4
1.383,   3.369e-4
1.386,   2.939e-4
1.389,   3.608e-4
1.392,   3.371e-4
1.395,   3.688e-4
1.398,   3.647e-4
1.401,   3.670e-4
1.404,   4.092e-4
1.407,   4.027e-4
1.410,   4.258e-4
1.413,   4.517e-4
1.416,   4.765e-4
1.419,   5.361e-4
1.422,   4.544e-4
1.425,   6.460e-4
1.428,   5.814e-4
1.431,   7.010e-4
1.434,   7.842e-4
1.437,   8.270e-4
1.440,   9.718e-4
1.443,   1.078e-3
1.446,   1.340e-3
1.449,   1.334e-3
1.452,   1.711e-3
1.455,   1.819e-3
1.458,   2.343e-3
1.461,   2.409e-3
1.464,   3.079e-3
1.467,   3.500e-3
1.470,   4.098e-3
1.473,   4.822e-3
1.476,   5.361e-3
1.479,   6.347e-3
1.482,   7.025e-3
1.485,   8.065e-3
1.488,   8.730e-3
1.491,   9.535e-3
1.494,   9.791e-3
1.497,   9.987e-3
1.500,   1.007e-2
1.503,   1.007e-2
1.506,   1.007e-2
1.509,   1.007e-2
1.512,   1.007e-2
1.515,   1.007e-2
1.518,   1.007e-2
1.521,   1.007e-2
1.524,   1.007e-2
1.527,   1.007e-2
1.530,   1.007e-2
1.533,   1.007e-2
1.536,   1.007e-2
1.539,   1.007e-2
1.542,   1.007e-2
1.543,   1.007e-2