File: Experimental Records and Raw Data/batch5/final500/B5_BEST_500_#1_Full(#3)-259mV.txt
June 8, 2023   20:42:16
Linear Sweep Voltammetry
File: d:\current work\al_oer\electrochemical test data\batch 5\500\B5_BEST_500_#1_Full(#3)-259mV.txt
Data Source:  Experiment
Instrument Model:  CHI660E
Header:
Note:

Init E (V) = 0.891

Final E (V) = 1.555

Scan Rate (V/s) = 0.010
Sample Interval (V) = 0.001
Quiet Time (sec) = 2
Sensitivity (A/V) = 0.001
Comp R (ohm) = 4.2
UC R (ohm) = 1.0

Results:

Channel 1:
Ep = 1.541V
ip = 4.814e-3A
Ah = 7.700e-3C

Potential/V, Current/A
0.891,   3.714e-5
0.894,   3.851e-5
0.897,   3.790e-5
0.900,   3.748e-5
0.903,   3.694e-5
0.906,   3.636e-5
0.909,   3.588e-5
0.912,   3.551e-5
0.915,   3.506e-5
0.918,   3.459e-5
0.921,   3.424e-5
0.924,   3.389e-5
0.927,   3.348e-5
0.930,   3.311e-5
0.933,   3.287e-5
0.936,   3.262e-5
0.939,   3.230e-5
0.942,   3.209e-5
0.945,   3.184e-5
0.948,   3.166e-5
0.951,   3.127e-5
0.954,   3.116e-5
0.957,   3.103e-5
0.960,   3.078e-5
0.963,   3.055e-5
0.966,   3.049e-5
0.969,   3.036e-5
0.972,   3.014e-5
0.975,   3.004e-5
0.978,   2.998e-5
0.981,   2.981e-5
0.984,   2.962e-5
0.987,   2.961e-5
0.990,   2.958e-5
0.993,   2.940e-5
0.996,   2.936e-5
0.999,   2.929e-5
1.002,   2.922e-5
1.005,   2.912e-5
1.008,   2.912e-5
1.011,   2.920e-5
1.014,   2.900e-5
1.017,   2.903e-5
1.020,   2.902e-5
1.023,   2.905e-5
1.026,   2.896e-5
1.029,   2.907e-5
1.032,   2.913e-5
1.035,   2.906e-5
1.038,   2.904e-5
1.041,   2.910e-5
1.044,   2.914e-5
1.047,   2.912e-5
1.050,   2.909e-5
1.053,   2.922e-5
1.056,   2.928e-5
1.059,   2.930e-5
1.062,   2.942e-5
1.065,   2.951e-5
1.068,   2.954e-5
1.071,   2.964e-5
1.074,   2.970e-5
1.077,   2.984e-5
1.080,   2.995e-5
1.083,   2.998e-5
1.086,   3.020e-5
1.089,   3.031e-5
1.092,   3.039e-5
1.095,   3.052e-5
1.098,   3.075e-5
1.101,   3.079e-5
1.104,   3.098e-5
1.107,   3.123e-5
1.110,   3.136e-5
1.113,   3.148e-5
1.116,   3.167e-5
1.119,   3.190e-5
1.122,   3.205e-5
1.125,   3.223e-5
1.128,   3.249e-5
1.131,   3.275e-5
1.134,   3.290e-5
1.137,   3.313e-5
1.140,   3.340e-5
1.143,   3.362e-5
1.146,   3.380e-5
1.149,   3.409e-5
1.152,   3.431e-5
1.155,   3.458e-5
1.158,   3.487e-5
1.161,   3.516e-5
1.164,   3.547e-5
1.167,   3.563e-5
1.170,   3.601e-5
1.173,   3.633e-5
1.176,   3.660e-5
1.179,   3.689e-5
1.182,   3.729e-5
1.185,   3.769e-5
1.188,   3.792e-5
1.191,   3.833e-5
1.194,   3.867e-5
1.197,   3.907e-5
1.200,   3.933e-5
1.203,   3.973e-5
1.206,   4.023e-5
1.209,   4.048e-5
1.212,   4.095e-5
1.215,   4.147e-5
1.218,   4.192e-5
1.221,   4.221e-5
1.224,   4.275e-5
1.227,   4.327e-5
1.230,   4.370e-5
1.233,   4.419e-5
1.236,   4.471e-5
1.239,   4.531e-5
1.242,   4.573e-5
1.245,   4.633e-5
1.248,   4.692e-5
1.251,   4.749e-5
1.254,   4.806e-5
1.257,   4.867e-5
1.260,   4.934e-5
1.263,   4.977e-5
1.266,   5.055e-5
1.269,   5.127e-5
1.272,   5.203e-5
1.275,   5.268e-5
1.278,   5.332e-5
1.281,   5.416e-5
1.284,   5.482e-5
1.287,   5.552e-5
1.290,   5.638e-5
1.293,   5.724e-5
1.296,   5.792e-5
1.299,   5.886e-5
1.302,   5.980e-5
1.305,   6.051e-5
1.308,   6.151e-5
1.311,   6.248e-5
1.314,   6.344e-5
1.317,   6.445e-5
1.320,   6.533e-5
1.323,   6.639e-5
1.326,   6.758e-5
1.329,   6.853e-5
1.332,   6.969e-5
1.335,   7.088e-5
1.338,   7.213e-5
1.341,   7.335e-5
1.344,   7.472e-5
1.347,   7.614e-5
1.350,   7.737e-5
1.353,   7.895e-5
1.356,   8.030e-5
1.359,   8.196e-5
1.362,   8.358e-5
1.365,   8.528e-5
1.368,   8.717e-5
1.371,   8.895e-5
1.374,   9.123e-5
1.377,   9.320e-5
1.380,   9.563e-5
1.383,   9.784e-5
1.386,   1.006e-4
1.389,   1.035e-4
1.392,   1.065e-4
1.395,   1.098e-4
1.398,   1.135e-4
1.401,   1.174e-4
1.404,   1.215e-4
1.407,   1.265e-4
1.410,   1.320e-4
1.413,   1.381e-4
1.416,   1.450e-4
1.419,   1.532e-4
1.422,   1.624e-4
1.425,   1.727e-4
1.428,   1.852e-4
1.431,   1.992e-4
1.434,   2.159e-4
1.437,   2.349e-4
1.440,   2.581e-4
1.443,   2.849e-4
1.446,   3.155e-4
1.449,   3.519e-4
1.452,   3.943e-4
1.455,   4.440e-4
1.458,   5.009e-4
1.461,   5.683e-4
1.464,   6.461e-4
1.467,   7.351e-4
1.470,   8.379e-4
1.473,   9.571e-4
1.476,   1.092e-3
1.479,   1.240e-3
1.482,   1.413e-3
1.485,   1.601e-3
1.488,   1.810e-3
1.491,   2.044e-3
1.494,   2.289e-3
1.497,   2.551e-3
1.500,   2.821e-3
1.503,   3.109e-3
1.506,   3.378e-3
1.509,   3.644e-3
1.512,   3.879e-3
1.515,   4.125e-3
1.518,   4.352e-3
1.521,   4.535e-3
1.524,   4.705e-3
1.527,   4.806e-3
1.530,   4.885e-3
1.533,   4.899e-3
1.536,   4.873e-3
1.539,   4.781e-3
1.542,   4.648e-3
1.545,   4.477e-3
1.548,   4.274e-3
1.551,   4.067e-3
1.554,   3.859e-3
1.555,   3.803e-3