File: Experimental Records and Raw Data/batch5/final500/B5_BEST_500_#1_High_Quality(#26)-220mV.txt
June 9, 2023   11:05:11
Linear Sweep Voltammetry
File: d:\current work\al_oer\electrochemical test data\batch 5\500\B5_BEST_500_#1_High_Quality(#26)-220mV.txt
Data Source:  Experiment
Instrument Model:  CHI660E
Header:
Note:

Init E (V) = 0.892

Final E (V) = 1.505

Scan Rate (V/s) = 0.010
Sample Interval (V) = 0.001
Quiet Time (sec) = 2
Sensitivity (A/V) = 0.001
Comp R (ohm) = 4.5

Results:

Channel 1:

Potential/V, Current/A
0.892,   2.634e-4
0.895,   3.135e-4
0.898,   3.039e-4
0.901,   3.069e-4
0.904,   3.021e-4
0.907,   2.905e-4
0.910,   2.962e-4
0.913,   2.831e-4
0.916,   2.847e-4
0.919,   2.855e-4
0.922,   2.739e-4
0.925,   2.854e-4
0.928,   2.683e-4
0.931,   2.674e-4
0.934,   2.693e-4
0.937,   2.696e-4
0.940,   2.699e-4
0.943,   2.600e-4
0.946,   2.569e-4
0.949,   2.632e-4
0.952,   2.501e-4
0.955,   2.572e-4
0.958,   2.521e-4
0.961,   2.463e-4
0.964,   2.547e-4
0.967,   2.401e-4
0.970,   2.453e-4
0.973,   2.417e-4
0.976,   2.388e-4
0.979,   2.432e-4
0.982,   2.372e-4
0.985,   2.381e-4
0.988,   2.295e-4
0.991,   2.341e-4
0.994,   2.383e-4
0.997,   2.294e-4
1.000,   2.292e-4
1.003,   2.284e-4
1.006,   2.306e-4
1.009,   2.372e-4
1.012,   2.248e-4
1.015,   2.244e-4
1.018,   2.244e-4
1.021,   2.267e-4
1.024,   2.342e-4
1.027,   2.190e-4
1.030,   2.214e-4
1.033,   2.215e-4
1.036,   2.215e-4
1.039,   2.303e-4
1.042,   2.163e-4
1.045,   2.178e-4
1.048,   2.199e-4
1.051,   2.229e-4
1.054,   2.266e-4
1.057,   2.118e-4
1.060,   2.140e-4
1.063,   2.213e-4
1.066,   2.220e-4
1.069,   2.242e-4
1.072,   2.092e-4
1.075,   2.134e-4
1.078,   2.249e-4
1.081,   2.170e-4
1.084,   2.185e-4
1.087,   2.107e-4
1.090,   2.131e-4
1.093,   2.251e-4
1.096,   2.144e-4
1.099,   2.145e-4
1.102,   2.168e-4
1.105,   2.163e-4
1.108,   2.246e-4
1.111,   2.154e-4
1.114,   2.190e-4
1.117,   2.164e-4
1.120,   2.137e-4
1.123,   2.311e-4
1.126,   2.146e-4
1.129,   2.154e-4
1.132,   2.239e-4
1.135,   2.101e-4
1.138,   2.370e-4
1.141,   2.186e-4
1.144,   2.165e-4
1.147,   2.275e-4
1.150,   2.138e-4
1.153,   2.363e-4
1.156,   2.221e-4
1.159,   2.164e-4
1.162,   2.356e-4
1.165,   2.154e-4
1.168,   2.405e-4
1.171,   2.251e-4
1.174,   2.170e-4
1.177,   2.419e-4
1.180,   2.235e-4
1.183,   2.351e-4
1.186,   2.314e-4
1.189,   2.290e-4
1.192,   2.495e-4
1.195,   2.330e-4
1.198,   2.367e-4
1.201,   2.379e-4
1.204,   2.343e-4
1.207,   2.559e-4
1.210,   2.334e-4
1.213,   2.391e-4
1.216,   2.457e-4
1.219,   2.396e-4
1.222,   2.651e-4
1.225,   2.429e-4
1.228,   2.421e-4
1.231,   2.577e-4
1.234,   2.508e-4
1.237,   2.648e-4
1.240,   2.469e-4
1.243,   2.494e-4
1.246,   2.665e-4
1.249,   2.489e-4
1.252,   2.776e-4
1.255,   2.568e-4
1.258,   2.561e-4
1.261,   2.788e-4
1.264,   2.578e-4
1.267,   2.794e-4
1.270,   2.670e-4
1.273,   2.540e-4
1.276,   2.967e-4
1.279,   2.688e-4
1.282,   2.734e-4
1.285,   2.817e-4
1.288,   2.685e-4
1.291,   2.993e-4
1.294,   2.754e-4
1.297,   2.768e-4
1.300,   2.988e-4
1.303,   2.724e-4
1.306,   3.085e-4
1.309,   2.848e-4
1.312,   2.818e-4
1.315,   3.083e-4
1.318,   2.679e-4
1.321,   3.255e-4
1.324,   2.940e-4
1.327,   2.945e-4
1.330,   3.272e-4
1.333,   2.886e-4
1.336,   3.360e-4
1.339,   3.031e-4
1.342,   3.100e-4
1.345,   3.334e-4
1.348,   3.000e-4
1.351,   3.537e-4
1.354,   3.321e-4
1.357,   3.160e-4
1.360,   3.497e-4
1.363,   3.223e-4
1.366,   3.582e-4
1.369,   3.625e-4
1.372,   3.443e-4
1.375,   3.891e-4
1.378,   3.654e-4
1.381,   3.824e-4
1.384,   4.057e-4
1.387,   3.788e-4
1.390,   4.231e-4
1.393,   4.210e-4
1.396,   4.269e-4
1.399,   4.752e-4
1.402,   4.585e-4
1.405,   4.875e-4
1.408,   5.155e-4
1.411,   5.289e-4
1.414,   5.944e-4
1.417,   5.936e-4
1.420,   6.359e-4
1.423,   6.810e-4
1.426,   8.998e-4
1.429,   7.928e-4
1.432,   8.330e-4
1.435,   1.026e-3
1.438,   1.119e-3
1.441,   1.374e-3
1.444,   1.471e-3
1.447,   1.672e-3
1.450,   2.183e-3
1.453,   2.166e-3
1.456,   2.571e-3
1.459,   3.263e-3
1.462,   3.470e-3
1.465,   4.621e-3
1.468,   4.885e-3
1.471,   6.261e-3
1.474,   6.748e-3
1.477,   7.400e-3
1.480,   8.605e-3
1.483,   8.683e-3
1.486,   9.490e-3
1.489,   9.805e-3
1.492,   9.871e-3
1.495,   1.007e-2
1.498,   1.007e-2
1.501,   1.007e-2
1.504,   1.007e-2
1.505,   1.007e-2