File: Experimental Records and Raw Data/batch5/final500/B5_BEST_500_#1_High_Quality(#27)-356mV.txt
June 9, 2023   16:13:33
Linear Sweep Voltammetry
File: d:\current work\al_oer\electrochemical test data\batch 5\500\B5_BEST_500_#1_High_Quality(#27)-356mV.txt
Data Source:  Experiment
Instrument Model:  CHI660E
Header:
Note:

Init E (V) = 0.890

Final E (V) = 1.618

Scan Rate (V/s) = 0.010
Sample Interval (V) = 0.001
Quiet Time (sec) = 2
Sensitivity (A/V) = 0.001
Comp R (ohm) = 5.5

Results:

Channel 1:

Potential/V, Current/A
0.890,   3.221e-5
0.893,   3.304e-5
0.896,   3.261e-5
0.899,   3.209e-5
0.902,   3.159e-5
0.905,   3.105e-5
0.908,   3.049e-5
0.911,   3.005e-5
0.914,   2.957e-5
0.917,   2.912e-5
0.920,   2.872e-5
0.923,   2.830e-5
0.926,   2.794e-5
0.929,   2.759e-5
0.932,   2.727e-5
0.935,   2.692e-5
0.938,   2.664e-5
0.941,   2.635e-5
0.944,   2.608e-5
0.947,   2.580e-5
0.950,   2.554e-5
0.953,   2.531e-5
0.956,   2.510e-5
0.959,   2.486e-5
0.962,   2.465e-5
0.965,   2.442e-5
0.968,   2.425e-5
0.971,   2.406e-5
0.974,   2.388e-5
0.977,   2.374e-5
0.980,   2.354e-5
0.983,   2.342e-5
0.986,   2.330e-5
0.989,   2.313e-5
0.992,   2.301e-5
0.995,   2.291e-5
0.998,   2.274e-5
1.001,   2.264e-5
1.004,   2.251e-5
1.007,   2.243e-5
1.010,   2.238e-5
1.013,   2.225e-5
1.016,   2.216e-5
1.019,   2.205e-5
1.022,   2.198e-5
1.025,   2.191e-5
1.028,   2.185e-5
1.031,   2.179e-5
1.034,   2.174e-5
1.037,   2.168e-5
1.040,   2.163e-5
1.043,   2.158e-5
1.046,   2.158e-5
1.049,   2.149e-5
1.052,   2.150e-5
1.055,   2.145e-5
1.058,   2.143e-5
1.061,   2.141e-5
1.064,   2.141e-5
1.067,   2.138e-5
1.070,   2.137e-5
1.073,   2.136e-5
1.076,   2.135e-5
1.079,   2.137e-5
1.082,   2.138e-5
1.085,   2.143e-5
1.088,   2.143e-5
1.091,   2.148e-5
1.094,   2.143e-5
1.097,   2.147e-5
1.100,   2.149e-5
1.103,   2.158e-5
1.106,   2.159e-5
1.109,   2.162e-5
1.112,   2.167e-5
1.115,   2.169e-5
1.118,   2.172e-5
1.121,   2.182e-5
1.124,   2.184e-5
1.127,   2.189e-5
1.130,   2.199e-5
1.133,   2.206e-5
1.136,   2.213e-5
1.139,   2.217e-5
1.142,   2.226e-5
1.145,   2.232e-5
1.148,   2.239e-5
1.151,   2.247e-5
1.154,   2.258e-5
1.157,   2.265e-5
1.160,   2.274e-5
1.163,   2.281e-5
1.166,   2.294e-5
1.169,   2.297e-5
1.172,   2.305e-5
1.175,   2.322e-5
1.178,   2.329e-5
1.181,   2.343e-5
1.184,   2.348e-5
1.187,   2.363e-5
1.190,   2.371e-5
1.193,   2.385e-5
1.196,   2.394e-5
1.199,   2.407e-5
1.202,   2.420e-5
1.205,   2.432e-5
1.208,   2.442e-5
1.211,   2.456e-5
1.214,   2.468e-5
1.217,   2.478e-5
1.220,   2.500e-5
1.223,   2.515e-5
1.226,   2.532e-5
1.229,   2.547e-5
1.232,   2.564e-5
1.235,   2.579e-5
1.238,   2.591e-5
1.241,   2.608e-5
1.244,   2.625e-5
1.247,   2.640e-5
1.250,   2.665e-5
1.253,   2.684e-5
1.256,   2.696e-5
1.259,   2.715e-5
1.262,   2.739e-5
1.265,   2.751e-5
1.268,   2.774e-5
1.271,   2.797e-5
1.274,   2.823e-5
1.277,   2.842e-5
1.280,   2.866e-5
1.283,   2.890e-5
1.286,   2.909e-5
1.289,   2.937e-5
1.292,   2.962e-5
1.295,   2.987e-5
1.298,   3.017e-5
1.301,   3.044e-5
1.304,   3.071e-5
1.307,   3.099e-5
1.310,   3.130e-5
1.313,   3.159e-5
1.316,   3.190e-5
1.319,   3.226e-5
1.322,   3.263e-5
1.325,   3.300e-5
1.328,   3.339e-5
1.331,   3.369e-5
1.334,   3.407e-5
1.337,   3.443e-5
1.340,   3.484e-5
1.343,   3.528e-5
1.346,   3.570e-5
1.349,   3.612e-5
1.352,   3.656e-5
1.355,   3.704e-5
1.358,   3.757e-5
1.361,   3.811e-5
1.364,   3.859e-5
1.367,   3.924e-5
1.370,   3.986e-5
1.373,   4.064e-5
1.376,   4.134e-5
1.379,   4.212e-5
1.382,   4.285e-5
1.385,   4.375e-5
1.388,   4.471e-5
1.391,   4.574e-5
1.394,   4.685e-5
1.397,   4.811e-5
1.400,   4.959e-5
1.403,   5.115e-5
1.406,   5.279e-5
1.409,   5.470e-5
1.412,   5.676e-5
1.415,   5.925e-5
1.418,   6.197e-5
1.421,   6.540e-5
1.424,   6.914e-5
1.427,   7.334e-5
1.430,   7.837e-5
1.433,   8.397e-5
1.436,   9.038e-5
1.439,   9.799e-5
1.442,   1.065e-4
1.445,   1.162e-4
1.448,   1.275e-4
1.451,   1.401e-4
1.454,   1.545e-4
1.457,   1.708e-4
1.460,   1.886e-4
1.463,   2.085e-4
1.466,   2.305e-4
1.469,   2.554e-4
1.472,   2.822e-4
1.475,   3.117e-4
1.478,   3.433e-4
1.481,   3.778e-4
1.484,   4.142e-4
1.487,   4.533e-4
1.490,   4.947e-4
1.493,   5.375e-4
1.496,   5.831e-4
1.499,   6.290e-4
1.502,   6.771e-4
1.505,   7.259e-4
1.508,   7.758e-4
1.511,   8.266e-4
1.514,   8.770e-4
1.517,   9.298e-4
1.520,   9.807e-4
1.523,   1.034e-3
1.526,   1.086e-3
1.529,   1.138e-3
1.532,   1.191e-3
1.535,   1.242e-3
1.538,   1.295e-3
1.541,   1.348e-3
1.544,   1.400e-3
1.547,   1.447e-3
1.550,   1.495e-3
1.553,   1.545e-3
1.556,   1.589e-3
1.559,   1.632e-3
1.562,   1.669e-3
1.565,   1.713e-3
1.568,   1.749e-3
1.571,   1.789e-3
1.574,   1.823e-3
1.577,   1.862e-3
1.580,   1.895e-3
1.583,   1.925e-3
1.586,   1.956e-3
1.589,   1.980e-3
1.592,   2.009e-3
1.595,   2.029e-3
1.598,   2.060e-3
1.601,   2.082e-3
1.604,   2.103e-3
1.607,   2.124e-3
1.610,   2.141e-3
1.613,   2.164e-3
1.616,   2.184e-3
1.618,   2.195e-3