File: Experimental Records and Raw Data/batch5/final500/B5_BEST_500_#1_Full(#15)-193mV.txt
June 9, 2023   12:49:15
Linear Sweep Voltammetry
File: d:\current work\al_oer\electrochemical test data\batch 5\500\B5_BEST_500_#1_Full(#15)-193mV.txt
Data Source:  Experiment
Instrument Model:  CHI660E
Header:
Note:

Init E (V) = 0.897

Final E (V) = 1.501

Scan Rate (V/s) = 0.010
Sample Interval (V) = 0.001
Quiet Time (sec) = 2
Sensitivity (A/V) = 0.001
Comp R (ohm) = 4.5

Results:

Channel 1:

Potential/V, Current/A
0.897,   7.354e-4
0.900,   9.266e-4
0.903,   9.486e-4
0.906,   9.243e-4
0.909,   8.667e-4
0.912,   8.144e-4
0.915,   7.745e-4
0.918,   7.462e-4
0.921,   7.452e-4
0.924,   7.722e-4
0.927,   7.912e-4
0.930,   8.061e-4
0.933,   7.779e-4
0.936,   7.299e-4
0.939,   6.959e-4
0.942,   6.822e-4
0.945,   6.664e-4
0.948,   6.758e-4
0.951,   6.964e-4
0.954,   7.292e-4
0.957,   7.251e-4
0.960,   6.899e-4
0.963,   6.596e-4
0.966,   6.416e-4
0.969,   6.301e-4
0.972,   6.192e-4
0.975,   6.225e-4
0.978,   6.705e-4
0.981,   6.872e-4
0.984,   6.718e-4
0.987,   6.372e-4
0.990,   6.069e-4
0.993,   5.972e-4
0.996,   5.975e-4
0.999,   5.924e-4
1.002,   6.141e-4
1.005,   6.551e-4
1.008,   6.582e-4
1.011,   6.240e-4
1.014,   5.973e-4
1.017,   5.907e-4
1.020,   5.825e-4
1.023,   5.757e-4
1.026,   5.827e-4
1.029,   6.134e-4
1.032,   6.335e-4
1.035,   6.269e-4
1.038,   5.986e-4
1.041,   5.829e-4
1.044,   5.764e-4
1.047,   5.675e-4
1.050,   5.686e-4
1.053,   5.977e-4
1.056,   6.267e-4
1.059,   6.372e-4
1.062,   6.200e-4
1.065,   5.890e-4
1.068,   5.717e-4
1.071,   5.625e-4
1.074,   5.661e-4
1.077,   5.807e-4
1.080,   6.180e-4
1.083,   6.448e-4
1.086,   6.255e-4
1.089,   6.090e-4
1.092,   5.826e-4
1.095,   5.785e-4
1.098,   5.731e-4
1.101,   5.860e-4
1.104,   6.102e-4
1.107,   6.266e-4
1.110,   6.496e-4
1.113,   6.306e-4
1.116,   6.109e-4
1.119,   5.991e-4
1.122,   5.966e-4
1.125,   5.909e-4
1.128,   6.103e-4
1.131,   6.440e-4
1.134,   6.480e-4
1.137,   6.588e-4
1.140,   6.253e-4
1.143,   6.202e-4
1.146,   6.118e-4
1.149,   6.106e-4
1.152,   6.158e-4
1.155,   6.558e-4
1.158,   6.904e-4
1.161,   6.911e-4
1.164,   6.719e-4
1.167,   6.492e-4
1.170,   6.434e-4
1.173,   6.306e-4
1.176,   6.522e-4
1.179,   6.742e-4
1.182,   7.140e-4
1.185,   7.278e-4
1.188,   7.279e-4
1.191,   6.954e-4
1.194,   6.761e-4
1.197,   6.585e-4
1.200,   6.559e-4
1.203,   6.885e-4
1.206,   7.309e-4
1.209,   7.680e-4
1.212,   7.546e-4
1.215,   7.328e-4
1.218,   7.220e-4
1.221,   7.209e-4
1.224,   7.410e-4
1.227,   7.359e-4
1.230,   7.636e-4
1.233,   7.813e-4
1.236,   8.171e-4
1.239,   8.082e-4
1.242,   7.840e-4
1.245,   7.798e-4
1.248,   8.058e-4
1.251,   8.150e-4
1.254,   8.032e-4
1.257,   8.586e-4
1.260,   9.057e-4
1.263,   8.986e-4
1.266,   8.672e-4
1.269,   8.206e-4
1.272,   8.302e-4
1.275,   8.425e-4
1.278,   8.540e-4
1.281,   8.618e-4
1.284,   9.005e-4
1.287,   9.563e-4
1.290,   9.541e-4
1.293,   9.017e-4
1.296,   8.508e-4
1.299,   8.303e-4
1.302,   8.382e-4
1.305,   8.733e-4
1.308,   9.337e-4
1.311,   9.968e-4
1.314,   1.006e-3
1.317,   9.764e-4
1.320,   9.212e-4
1.323,   8.994e-4
1.326,   8.651e-4
1.329,   8.940e-4
1.332,   9.284e-4
1.335,   9.884e-4
1.338,   1.046e-3
1.341,   1.043e-3
1.344,   9.908e-4
1.347,   9.578e-4
1.350,   9.591e-4
1.353,   9.815e-4
1.356,   9.779e-4
1.359,   1.012e-3
1.362,   1.051e-3
1.365,   1.100e-3
1.368,   1.073e-3
1.371,   1.051e-3
1.374,   1.080e-3
1.377,   1.126e-3
1.380,   1.095e-3
1.383,   1.131e-3
1.386,   1.168e-3
1.389,   1.264e-3
1.392,   1.305e-3
1.395,   1.301e-3
1.398,   1.283e-3
1.401,   1.302e-3
1.404,   1.360e-3
1.407,   1.415e-3
1.410,   1.515e-3
1.413,   1.665e-3
1.416,   1.819e-3
1.419,   1.910e-3
1.422,   1.948e-3
1.425,   2.080e-3
1.428,   2.228e-3
1.431,   2.470e-3
1.434,   2.675e-3
1.437,   2.983e-3
1.440,   3.381e-3
1.443,   3.903e-3
1.446,   4.399e-3
1.449,   4.946e-3
1.452,   5.606e-3
1.455,   6.428e-3
1.458,   7.183e-3
1.461,   7.885e-3
1.464,   8.774e-3
1.467,   9.553e-3
1.470,   9.997e-3
1.473,   1.007e-2
1.476,   1.007e-2
1.479,   1.007e-2
1.482,   1.007e-2
1.485,   1.007e-2
1.488,   1.007e-2
1.491,   1.007e-2
1.494,   1.007e-2
1.497,   1.007e-2
1.500,   1.007e-2
1.501,   1.007e-2