File: Experimental Records and Raw Data/batch5/final500/B5_BEST_500_#1_High_Quality(#24)-195mV.txt
June 9, 2023   14:49:33
Linear Sweep Voltammetry
File: d:\current work\al_oer\electrochemical test data\batch 5\500\B5_BEST_500_#1_High_Quality(#24)-195mV.txt
Data Source:  Experiment
Instrument Model:  CHI660E
Header:
Note:

Init E (V) = 0.893

Final E (V) = 1.493

Scan Rate (V/s) = 0.010
Sample Interval (V) = 0.001
Quiet Time (sec) = 2
Sensitivity (A/V) = 0.001
Comp R (ohm) = 4.0

Results:

Channel 1:

Potential/V, Current/A
0.893,   1.457e-4
0.896,   3.501e-4
0.899,   3.426e-4
0.902,   3.306e-4
0.905,   3.618e-4
0.908,   3.434e-4
0.911,   3.376e-4
0.914,   3.537e-4
0.917,   3.566e-4
0.920,   3.479e-4
0.923,   3.446e-4
0.926,   3.687e-4
0.929,   3.491e-4
0.932,   3.439e-4
0.935,   3.766e-4
0.938,   3.551e-4
0.941,   3.504e-4
0.944,   3.594e-4
0.947,   3.653e-4
0.950,   3.569e-4
0.953,   3.582e-4
0.956,   3.760e-4
0.959,   3.613e-4
0.962,   3.529e-4
0.965,   3.832e-4
0.968,   3.672e-4
0.971,   3.593e-4
0.974,   3.698e-4
0.977,   3.820e-4
0.980,   3.652e-4
0.983,   3.669e-4
0.986,   3.939e-4
0.989,   3.752e-4
0.992,   3.707e-4
0.995,   3.919e-4
0.998,   3.788e-4
1.001,   3.759e-4
1.004,   3.848e-4
1.007,   4.036e-4
1.010,   3.842e-4
1.013,   3.829e-4
1.016,   4.115e-4
1.019,   3.907e-4
1.022,   3.851e-4
1.025,   4.044e-4
1.028,   3.948e-4
1.031,   3.967e-4
1.034,   3.953e-4
1.037,   4.139e-4
1.040,   4.096e-4
1.043,   3.959e-4
1.046,   4.252e-4
1.049,   4.109e-4
1.052,   4.098e-4
1.055,   4.193e-4
1.058,   4.210e-4
1.061,   4.114e-4
1.064,   4.086e-4
1.067,   4.407e-4
1.070,   4.229e-4
1.073,   4.122e-4
1.076,   4.429e-4
1.079,   4.272e-4
1.082,   4.269e-4
1.085,   4.381e-4
1.088,   4.415e-4
1.091,   4.448e-4
1.094,   4.380e-4
1.097,   4.606e-4
1.100,   4.410e-4
1.103,   4.359e-4
1.106,   4.653e-4
1.109,   4.525e-4
1.112,   4.489e-4
1.115,   4.618e-4
1.118,   4.720e-4
1.121,   4.654e-4
1.124,   4.552e-4
1.127,   4.898e-4
1.130,   4.797e-4
1.133,   4.650e-4
1.136,   4.938e-4
1.139,   4.876e-4
1.142,   4.831e-4
1.145,   4.920e-4
1.148,   5.058e-4
1.151,   5.008e-4
1.154,   4.901e-4
1.157,   5.186e-4
1.160,   5.091e-4
1.163,   5.004e-4
1.166,   5.323e-4
1.169,   5.168e-4
1.172,   5.154e-4
1.175,   5.162e-4
1.178,   5.401e-4
1.181,   5.352e-4
1.184,   5.213e-4
1.187,   5.604e-4
1.190,   5.429e-4
1.193,   5.330e-4
1.196,   5.671e-4
1.199,   5.562e-4
1.202,   5.463e-4
1.205,   5.610e-4
1.208,   5.926e-4
1.211,   5.711e-4
1.214,   5.620e-4
1.217,   6.151e-4
1.220,   5.784e-4
1.223,   5.634e-4
1.226,   6.002e-4
1.229,   6.115e-4
1.232,   5.953e-4
1.235,   5.967e-4
1.238,   6.352e-4
1.241,   5.851e-4
1.244,   6.634e-4
1.247,   5.962e-4
1.250,   6.889e-4
1.253,   6.100e-4
1.256,   6.936e-4
1.259,   6.233e-4
1.262,   6.837e-4
1.265,   6.296e-4
1.268,   6.760e-4
1.271,   6.588e-4
1.274,   6.701e-4
1.277,   6.557e-4
1.280,   6.620e-4
1.283,   6.853e-4
1.286,   6.632e-4
1.289,   7.023e-4
1.292,   6.689e-4
1.295,   7.314e-4
1.298,   6.829e-4
1.301,   7.615e-4
1.304,   6.943e-4
1.307,   7.836e-4
1.310,   6.988e-4
1.313,   8.030e-4
1.316,   7.290e-4
1.319,   7.874e-4
1.322,   7.425e-4
1.325,   7.949e-4
1.328,   7.505e-4
1.331,   7.878e-4
1.334,   7.686e-4
1.337,   7.848e-4
1.340,   7.777e-4
1.343,   7.846e-4
1.346,   8.157e-4
1.349,   7.846e-4
1.352,   8.462e-4
1.355,   7.825e-4
1.358,   8.755e-4
1.361,   8.126e-4
1.364,   9.272e-4
1.367,   8.298e-4
1.370,   9.493e-4
1.373,   8.511e-4
1.376,   9.776e-4
1.379,   9.296e-4
1.382,   1.017e-3
1.385,   9.604e-4
1.388,   1.043e-3
1.391,   1.004e-3
1.394,   1.066e-3
1.397,   1.044e-3
1.400,   1.111e-3
1.403,   1.153e-3
1.406,   1.151e-3
1.409,   1.288e-3
1.412,   1.274e-3
1.415,   1.440e-3
1.418,   1.453e-3
1.421,   1.688e-3
1.424,   1.755e-3
1.427,   2.026e-3
1.430,   2.104e-3
1.433,   2.513e-3
1.436,   2.708e-3
1.439,   3.195e-3
1.442,   3.548e-3
1.445,   4.073e-3
1.448,   4.677e-3
1.451,   5.272e-3
1.454,   5.888e-3
1.457,   6.642e-3
1.460,   7.506e-3
1.463,   7.792e-3
1.466,   8.954e-3
1.469,   9.221e-3
1.472,   9.610e-3
1.475,   9.937e-3
1.478,   1.007e-2
1.481,   1.007e-2
1.484,   1.007e-2
1.487,   1.007e-2
1.490,   1.007e-2
1.493,   1.007e-2