File: Experimental Records and Raw Data/batch5/final500/B5_BEST_500_#1_High_Quality(#31)-213mV.txt
June 9, 2023   11:22:27
Linear Sweep Voltammetry
File: d:\current work\al_oer\electrochemical test data\batch 5\500\B5_BEST_500_#1_High_Quality(#31)-213mV.txt
Data Source:  Experiment
Instrument Model:  CHI660E
Header:
Note:

Init E (V) = 0.883

Final E (V) = 1.682

Scan Rate (V/s) = 0.010
Sample Interval (V) = 0.001
Quiet Time (sec) = 2
Sensitivity (A/V) = 0.001
Comp R (ohm) = 5.1

Results:

Channel 1:

Potential/V, Current/A
0.883,   2.368e-4
0.886,   2.668e-4
0.889,   2.662e-4
0.892,   2.623e-4
0.895,   2.568e-4
0.898,   2.517e-4
0.901,   2.462e-4
0.904,   2.419e-4
0.907,   2.371e-4
0.910,   2.322e-4
0.913,   2.279e-4
0.916,   2.234e-4
0.919,   2.190e-4
0.922,   2.155e-4
0.925,   2.124e-4
0.928,   2.098e-4
0.931,   2.073e-4
0.934,   2.051e-4
0.937,   2.026e-4
0.940,   2.007e-4
0.943,   1.988e-4
0.946,   1.970e-4
0.949,   1.959e-4
0.952,   1.934e-4
0.955,   1.921e-4
0.958,   1.910e-4
0.961,   1.896e-4
0.964,   1.885e-4
0.967,   1.869e-4
0.970,   1.849e-4
0.973,   1.839e-4
0.976,   1.826e-4
0.979,   1.815e-4
0.982,   1.801e-4
0.985,   1.783e-4
0.988,   1.768e-4
0.991,   1.757e-4
0.994,   1.759e-4
0.997,   1.737e-4
1.000,   1.732e-4
1.003,   1.727e-4
1.006,   1.718e-4
1.009,   1.718e-4
1.012,   1.708e-4
1.015,   1.707e-4
1.018,   1.704e-4
1.021,   1.700e-4
1.024,   1.702e-4
1.027,   1.698e-4
1.030,   1.697e-4
1.033,   1.697e-4
1.036,   1.697e-4
1.039,   1.695e-4
1.042,   1.691e-4
1.045,   1.688e-4
1.048,   1.688e-4
1.051,   1.680e-4
1.054,   1.679e-4
1.057,   1.672e-4
1.060,   1.670e-4
1.063,   1.674e-4
1.066,   1.677e-4
1.069,   1.678e-4
1.072,   1.679e-4
1.075,   1.683e-4
1.078,   1.700e-4
1.081,   1.701e-4
1.084,   1.704e-4
1.087,   1.705e-4
1.090,   1.712e-4
1.093,   1.704e-4
1.096,   1.722e-4
1.099,   1.728e-4
1.102,   1.732e-4
1.105,   1.739e-4
1.108,   1.751e-4
1.111,   1.752e-4
1.114,   1.767e-4
1.117,   1.775e-4
1.120,   1.781e-4
1.123,   1.794e-4
1.126,   1.807e-4
1.129,   1.809e-4
1.132,   1.812e-4
1.135,   1.823e-4
1.138,   1.823e-4
1.141,   1.824e-4
1.144,   1.834e-4
1.147,   1.838e-4
1.150,   1.843e-4
1.153,   1.854e-4
1.156,   1.855e-4
1.159,   1.873e-4
1.162,   1.868e-4
1.165,   1.890e-4
1.168,   1.890e-4
1.171,   1.900e-4
1.174,   1.914e-4
1.177,   1.925e-4
1.180,   1.926e-4
1.183,   1.938e-4
1.186,   1.957e-4
1.189,   1.965e-4
1.192,   1.994e-4
1.195,   2.012e-4
1.198,   2.025e-4
1.201,   2.028e-4
1.204,   2.049e-4
1.207,   2.067e-4
1.210,   2.076e-4
1.213,   2.102e-4
1.216,   2.110e-4
1.219,   2.112e-4
1.222,   2.135e-4
1.225,   2.154e-4
1.228,   2.168e-4
1.231,   2.190e-4
1.234,   2.207e-4
1.237,   2.222e-4
1.240,   2.233e-4
1.243,   2.260e-4
1.246,   2.264e-4
1.249,   2.293e-4
1.252,   2.312e-4
1.255,   2.328e-4
1.258,   2.353e-4
1.261,   2.372e-4
1.264,   2.404e-4
1.267,   2.410e-4
1.270,   2.439e-4
1.273,   2.447e-4
1.276,   2.482e-4
1.279,   2.490e-4
1.282,   2.546e-4
1.285,   2.567e-4
1.288,   2.599e-4
1.291,   2.622e-4
1.294,   2.671e-4
1.297,   2.680e-4
1.300,   2.710e-4
1.303,   2.738e-4
1.306,   2.764e-4
1.309,   2.789e-4
1.312,   2.813e-4
1.315,   2.845e-4
1.318,   2.861e-4
1.321,   2.897e-4
1.324,   2.932e-4
1.327,   2.981e-4
1.330,   3.024e-4
1.333,   3.076e-4
1.336,   3.096e-4
1.339,   3.133e-4
1.342,   3.192e-4
1.345,   3.252e-4
1.348,   3.312e-4
1.351,   3.380e-4
1.354,   3.452e-4
1.357,   3.525e-4
1.360,   3.623e-4
1.363,   3.729e-4
1.366,   3.833e-4
1.369,   3.943e-4
1.372,   4.091e-4
1.375,   4.205e-4
1.378,   4.362e-4
1.381,   4.517e-4
1.384,   4.714e-4
1.387,   4.924e-4
1.390,   5.155e-4
1.393,   5.403e-4
1.396,   5.673e-4
1.399,   5.976e-4
1.402,   6.305e-4
1.405,   6.645e-4
1.408,   7.044e-4
1.411,   7.474e-4
1.414,   7.995e-4
1.417,   8.535e-4
1.420,   9.235e-4
1.423,   9.981e-4
1.426,   1.091e-3
1.429,   1.193e-3
1.432,   1.312e-3
1.435,   1.450e-3
1.438,   1.591e-3
1.441,   1.748e-3
1.444,   1.942e-3
1.447,   2.141e-3
1.450,   2.381e-3
1.453,   2.628e-3
1.456,   2.911e-3
1.459,   3.206e-3
1.462,   3.538e-3
1.465,   3.891e-3
1.468,   4.274e-3
1.471,   4.625e-3
1.474,   4.959e-3
1.477,   5.425e-3
1.480,   5.820e-3
1.483,   6.231e-3
1.486,   6.721e-3
1.489,   7.066e-3
1.492,   7.629e-3
1.495,   7.945e-3
1.498,   8.589e-3
1.501,   8.829e-3
1.504,   9.365e-3
1.507,   9.708e-3
1.510,   9.952e-3
1.513,   1.003e-2
1.516,   1.005e-2
1.519,   1.007e-2
1.522,   1.007e-2
1.525,   1.004e-2
1.528,   9.924e-3
1.531,   1.007e-2
1.534,   1.007e-2
1.537,   1.007e-2
1.540,   1.007e-2
1.543,   1.007e-2
1.546,   1.002e-2
1.549,   9.767e-3
1.552,   1.007e-2
1.555,   1.007e-2
1.558,   1.007e-2
1.561,   1.007e-2
1.564,   1.007e-2
1.567,   1.007e-2
1.570,   1.007e-2
1.573,   1.007e-2
1.576,   1.007e-2
1.579,   1.007e-2
1.582,   1.007e-2
1.585,   1.007e-2
1.588,   1.007e-2
1.591,   1.007e-2
1.594,   1.007e-2
1.597,   1.007e-2
1.600,   1.007e-2
1.603,   1.007e-2
1.606,   1.007e-2
1.609,   1.007e-2
1.612,   1.007e-2
1.615,   1.007e-2
1.618,   1.007e-2
1.621,   1.007e-2
1.624,   1.007e-2
1.627,   1.007e-2
1.630,   1.007e-2
1.633,   1.007e-2
1.636,   1.007e-2
1.639,   1.007e-2
1.642,   1.007e-2
1.645,   1.007e-2
1.648,   1.007e-2
1.651,   1.007e-2
1.654,   1.007e-2
1.657,   1.007e-2
1.660,   1.007e-2
1.663,   1.007e-2
1.666,   1.007e-2
1.669,   1.007e-2
1.672,   1.007e-2
1.675,   1.007e-2
1.678,   1.007e-2
1.681,   1.007e-2
1.682,   1.007e-2