File: Experimental Records and Raw Data/batch5/final500/B5_BEST_500_#1_Full(#13)-220mV.txt
June 8, 2023   21:23:22
Linear Sweep Voltammetry
File: d:\current work\al_oer\electrochemical test data\batch 5\500\B5_BEST_500_#1_Full(#13)-220mV.txt
Data Source:  Experiment
Instrument Model:  CHI660E
Header:
Note:

Init E (V) = 0.899

Final E (V) = 1.518

Scan Rate (V/s) = 0.010
Sample Interval (V) = 0.001
Quiet Time (sec) = 2
Sensitivity (A/V) = 0.001
Comp R (ohm) = 4.3

Results:

Channel 1:

Potential/V, Current/A
0.899,   3.565e-4
0.902,   4.932e-4
0.905,   4.455e-4
0.908,   4.646e-4
0.911,   4.303e-4
0.914,   4.265e-4
0.917,   4.311e-4
0.920,   4.088e-4
0.923,   4.409e-4
0.926,   4.009e-4
0.929,   4.292e-4
0.932,   3.936e-4
0.935,   3.938e-4
0.938,   3.897e-4
0.941,   3.757e-4
0.944,   4.058e-4
0.947,   3.720e-4
0.950,   4.006e-4
0.953,   3.661e-4
0.956,   3.744e-4
0.959,   3.685e-4
0.962,   3.559e-4
0.965,   3.827e-4
0.968,   3.523e-4
0.971,   3.854e-4
0.974,   3.508e-4
0.977,   3.637e-4
0.980,   3.488e-4
0.983,   3.417e-4
0.986,   3.638e-4
0.989,   3.384e-4
0.992,   3.715e-4
0.995,   3.407e-4
0.998,   3.520e-4
1.001,   3.394e-4
1.004,   3.360e-4
1.007,   3.509e-4
1.010,   3.307e-4
1.013,   3.619e-4
1.016,   3.319e-4
1.019,   3.490e-4
1.022,   3.315e-4
1.025,   3.291e-4
1.028,   3.398e-4
1.031,   3.248e-4
1.034,   3.532e-4
1.037,   3.301e-4
1.040,   3.456e-4
1.043,   3.269e-4
1.046,   3.286e-4
1.049,   3.378e-4
1.052,   3.215e-4
1.055,   3.536e-4
1.058,   3.236e-4
1.061,   3.491e-4
1.064,   3.249e-4
1.067,   3.314e-4
1.070,   3.363e-4
1.073,   3.244e-4
1.076,   3.528e-4
1.079,   3.232e-4
1.082,   3.584e-4
1.085,   3.235e-4
1.088,   3.385e-4
1.091,   3.378e-4
1.094,   3.241e-4
1.097,   3.604e-4
1.100,   3.290e-4
1.103,   3.624e-4
1.106,   3.333e-4
1.109,   3.492e-4
1.112,   3.427e-4
1.115,   3.342e-4
1.118,   3.685e-4
1.121,   3.358e-4
1.124,   3.769e-4
1.127,   3.429e-4
1.130,   3.606e-4
1.133,   3.512e-4
1.136,   3.448e-4
1.139,   3.806e-4
1.142,   3.502e-4
1.145,   3.975e-4
1.148,   3.533e-4
1.151,   3.782e-4
1.154,   3.631e-4
1.157,   3.634e-4
1.160,   3.870e-4
1.163,   3.593e-4
1.166,   4.236e-4
1.169,   3.681e-4
1.172,   4.042e-4
1.175,   3.782e-4
1.178,   3.809e-4
1.181,   4.061e-4
1.184,   3.756e-4
1.187,   4.363e-4
1.190,   3.879e-4
1.193,   4.345e-4
1.196,   3.998e-4
1.199,   4.092e-4
1.202,   4.233e-4
1.205,   3.997e-4
1.208,   4.734e-4
1.211,   4.068e-4
1.214,   4.697e-4
1.217,   4.226e-4
1.220,   4.343e-4
1.223,   4.469e-4
1.226,   4.289e-4
1.229,   4.932e-4
1.232,   4.329e-4
1.235,   5.014e-4
1.238,   4.504e-4
1.241,   4.786e-4
1.244,   4.700e-4
1.247,   4.600e-4
1.250,   5.189e-4
1.253,   4.619e-4
1.256,   5.404e-4
1.259,   4.697e-4
1.262,   5.044e-4
1.265,   4.801e-4
1.268,   4.842e-4
1.271,   5.317e-4
1.274,   4.790e-4
1.277,   5.621e-4
1.280,   4.893e-4
1.283,   5.305e-4
1.286,   4.946e-4
1.289,   5.010e-4
1.292,   5.350e-4
1.295,   4.902e-4
1.298,   5.689e-4
1.301,   4.965e-4
1.304,   5.483e-4
1.307,   5.035e-4
1.310,   5.141e-4
1.313,   5.328e-4
1.316,   5.023e-4
1.319,   5.772e-4
1.322,   5.024e-4
1.325,   5.602e-4
1.328,   5.138e-4
1.331,   5.330e-4
1.334,   5.373e-4
1.337,   5.099e-4
1.340,   5.857e-4
1.343,   5.181e-4
1.346,   5.766e-4
1.349,   5.252e-4
1.352,   5.431e-4
1.355,   5.405e-4
1.358,   5.311e-4
1.361,   6.040e-4
1.364,   5.375e-4
1.367,   6.085e-4
1.370,   5.525e-4
1.373,   5.729e-4
1.376,   5.770e-4
1.379,   5.625e-4
1.382,   6.330e-4
1.385,   5.679e-4
1.388,   6.590e-4
1.391,   5.963e-4
1.394,   6.340e-4
1.397,   6.249e-4
1.400,   6.188e-4
1.403,   6.984e-4
1.406,   6.459e-4
1.409,   7.454e-4
1.412,   6.787e-4
1.415,   7.603e-4
1.418,   7.302e-4
1.421,   7.576e-4
1.424,   8.459e-4
1.427,   8.212e-4
1.430,   1.007e-3
1.433,   9.412e-4
1.436,   1.132e-3
1.439,   1.104e-3
1.442,   1.258e-3
1.445,   1.445e-3
1.448,   1.484e-3
1.451,   1.913e-3
1.454,   1.910e-3
1.457,   2.425e-3
1.460,   2.466e-3
1.463,   3.009e-3
1.466,   3.451e-3
1.469,   3.798e-3
1.472,   4.806e-3
1.475,   4.939e-3
1.478,   6.110e-3
1.481,   6.313e-3
1.484,   7.457e-3
1.487,   8.182e-3
1.490,   8.989e-3
1.493,   9.643e-3
1.496,   1.004e-2
1.499,   1.007e-2
1.502,   1.007e-2
1.505,   1.007e-2
1.508,   1.007e-2
1.511,   1.007e-2
1.514,   1.007e-2
1.517,   1.007e-2
1.518,   1.007e-2