File: Experimental Records and Raw Data/batch5/final500/B5_BEST_500_#1_Full(#12)-220mV.txt
June 9, 2023   16:43:08
Linear Sweep Voltammetry
File: d:\current work\al_oer\electrochemical test data\batch 5\500\B5_BEST_500_#1_Full(#12)-220mV.txt
Data Source:  Experiment
Instrument Model:  CHI660E
Header:
Note:

Init E (V) = 0.897

Final E (V) = 1.495

Scan Rate (V/s) = 0.010
Sample Interval (V) = 0.001
Quiet Time (sec) = 2
Sensitivity (A/V) = 0.001
Comp R (ohm) = 4.2

Results:

Channel 1:

Potential/V, Current/A
0.897,   3.619e-4
0.899,   4.022e-4
0.901,   4.026e-4
0.903,   3.961e-4
0.905,   3.978e-4
0.907,   3.894e-4
0.909,   3.884e-4
0.911,   3.780e-4
0.913,   3.817e-4
0.915,   3.734e-4
0.917,   3.735e-4
0.919,   3.644e-4
0.921,   3.666e-4
0.923,   3.635e-4
0.925,   3.580e-4
0.927,   3.539e-4
0.929,   3.526e-4
0.931,   3.517e-4
0.933,   3.449e-4
0.935,   3.451e-4
0.937,   3.409e-4
0.939,   3.421e-4
0.941,   3.342e-4
0.943,   3.381e-4
0.945,   3.301e-4
0.947,   3.351e-4
0.949,   3.265e-4
0.951,   3.278e-4
0.953,   3.220e-4
0.955,   3.262e-4
0.957,   3.211e-4
0.959,   3.194e-4
0.961,   3.159e-4
0.963,   3.189e-4
0.965,   3.128e-4
0.967,   3.118e-4
0.969,   3.115e-4
0.971,   3.070e-4
0.973,   3.084e-4
0.975,   3.056e-4
0.977,   3.071e-4
0.979,   3.014e-4
0.981,   3.055e-4
0.983,   3.010e-4
0.985,   3.020e-4
0.987,   2.964e-4
0.989,   3.006e-4
0.991,   2.953e-4
0.993,   2.980e-4
0.995,   2.927e-4
0.997,   2.961e-4
0.999,   2.949e-4
1.001,   2.923e-4
1.003,   2.910e-4
1.005,   2.910e-4
1.007,   2.906e-4
1.009,   2.889e-4
1.011,   2.887e-4
1.013,   2.852e-4
1.015,   2.901e-4
1.017,   2.849e-4
1.019,   2.879e-4
1.021,   2.830e-4
1.023,   2.868e-4
1.025,   2.838e-4
1.027,   2.847e-4
1.029,   2.804e-4
1.031,   2.833e-4
1.033,   2.827e-4
1.035,   2.800e-4
1.037,   2.807e-4
1.039,   2.796e-4
1.041,   2.825e-4
1.043,   2.759e-4
1.045,   2.803e-4
1.047,   2.780e-4
1.049,   2.812e-4
1.051,   2.770e-4
1.053,   2.806e-4
1.055,   2.734e-4
1.057,   2.794e-4
1.059,   2.769e-4
1.061,   2.776e-4
1.063,   2.739e-4
1.065,   2.782e-4
1.067,   2.771e-4
1.069,   2.748e-4
1.071,   2.741e-4
1.073,   2.753e-4
1.075,   2.781e-4
1.077,   2.727e-4
1.079,   2.777e-4
1.081,   2.723e-4
1.083,   2.784e-4
1.085,   2.738e-4
1.087,   2.773e-4
1.089,   2.717e-4
1.091,   2.795e-4
1.093,   2.744e-4
1.095,   2.785e-4
1.097,   2.719e-4
1.099,   2.768e-4
1.101,   2.780e-4
1.103,   2.771e-4
1.105,   2.737e-4
1.107,   2.755e-4
1.109,   2.780e-4
1.111,   2.770e-4
1.113,   2.751e-4
1.115,   2.733e-4
1.117,   2.811e-4
1.119,   2.758e-4
1.121,   2.794e-4
1.123,   2.732e-4
1.125,   2.813e-4
1.127,   2.768e-4
1.129,   2.799e-4
1.131,   2.730e-4
1.133,   2.805e-4
1.135,   2.794e-4
1.137,   2.799e-4
1.139,   2.778e-4
1.141,   2.783e-4
1.143,   2.836e-4
1.145,   2.794e-4
1.147,   2.825e-4
1.149,   2.778e-4
1.151,   2.858e-4
1.153,   2.795e-4
1.155,   2.832e-4
1.157,   2.773e-4
1.159,   2.866e-4
1.161,   2.822e-4
1.163,   2.842e-4
1.165,   2.798e-4
1.167,   2.876e-4
1.169,   2.854e-4
1.171,   2.844e-4
1.173,   2.823e-4
1.175,   2.859e-4
1.177,   2.887e-4
1.179,   2.842e-4
1.181,   2.869e-4
1.183,   2.847e-4
1.185,   2.910e-4
1.187,   2.849e-4
1.189,   2.883e-4
1.191,   2.855e-4
1.193,   2.931e-4
1.195,   2.873e-4
1.197,   2.891e-4
1.199,   2.868e-4
1.201,   2.931e-4
1.203,   2.910e-4
1.205,   2.904e-4
1.207,   2.894e-4
1.209,   2.910e-4
1.211,   2.953e-4
1.213,   2.917e-4
1.215,   2.923e-4
1.217,   2.901e-4
1.219,   2.994e-4
1.221,   2.900e-4
1.223,   2.963e-4
1.225,   2.903e-4
1.227,   2.993e-4
1.229,   2.938e-4
1.231,   2.976e-4
1.233,   2.924e-4
1.235,   3.020e-4
1.237,   2.960e-4
1.239,   2.974e-4
1.241,   2.965e-4
1.243,   2.977e-4
1.245,   3.021e-4
1.247,   2.955e-4
1.249,   3.013e-4
1.251,   2.982e-4
1.253,   3.050e-4
1.255,   2.982e-4
1.257,   3.041e-4
1.259,   2.957e-4
1.261,   3.079e-4
1.263,   3.005e-4
1.265,   3.049e-4
1.267,   2.989e-4
1.269,   3.077e-4
1.271,   3.087e-4
1.273,   3.008e-4
1.275,   3.075e-4
1.277,   3.102e-4
1.279,   3.127e-4
1.281,   3.050e-4
1.283,   3.100e-4
1.285,   3.064e-4
1.287,   3.177e-4
1.289,   3.083e-4
1.291,   3.139e-4
1.293,   3.087e-4
1.295,   3.180e-4
1.297,   3.150e-4
1.299,   3.173e-4
1.301,   3.105e-4
1.303,   3.239e-4
1.305,   3.237e-4
1.307,   3.194e-4
1.309,   3.254e-4
1.311,   3.281e-4
1.313,   3.309e-4
1.315,   3.237e-4
1.317,   3.358e-4
1.319,   3.277e-4
1.321,   3.428e-4
1.323,   3.303e-4
1.325,   3.421e-4
1.327,   3.347e-4
1.329,   3.505e-4
1.331,   3.416e-4
1.333,   3.472e-4
1.335,   3.416e-4
1.337,   3.535e-4
1.339,   3.585e-4
1.341,   3.552e-4
1.343,   3.564e-4
1.345,   3.597e-4
1.347,   3.698e-4
1.349,   3.570e-4
1.351,   3.676e-4
1.353,   3.642e-4
1.355,   3.857e-4
1.357,   3.655e-4
1.359,   3.826e-4
1.361,   3.773e-4
1.363,   3.936e-4
1.365,   3.850e-4
1.367,   3.905e-4
1.369,   3.891e-4
1.371,   4.036e-4
1.373,   4.054e-4
1.375,   4.046e-4
1.377,   4.122e-4
1.379,   4.185e-4
1.381,   4.287e-4
1.383,   4.223e-4
1.385,   4.370e-4
1.387,   4.330e-4
1.389,   4.597e-4
1.391,   4.455e-4
1.393,   4.698e-4
1.395,   4.603e-4
1.397,   4.926e-4
1.399,   4.849e-4
1.401,   5.022e-4
1.403,   5.029e-4
1.405,   5.333e-4
1.407,   5.418e-4
1.409,   5.458e-4
1.411,   5.665e-4
1.413,   5.889e-4
1.415,   6.215e-4
1.417,   6.157e-4
1.419,   6.562e-4
1.421,   6.772e-4
1.423,   7.395e-4
1.425,   7.369e-4
1.427,   7.940e-4
1.429,   8.214e-4
1.431,   9.191e-4
1.433,   9.390e-4
1.435,   1.006e-3
1.437,   1.074e-3
1.439,   1.199e-3
1.441,   1.281e-3
1.443,   1.366e-3
1.445,   1.490e-3
1.447,   1.660e-3
1.449,   1.865e-3
1.451,   1.963e-3
1.453,   2.193e-3
1.455,   2.433e-3
1.457,   2.800e-3
1.459,   2.956e-3
1.461,   3.309e-3
1.463,   3.613e-3
1.465,   4.177e-3
1.467,   4.461e-3
1.469,   4.878e-3
1.471,   5.283e-3
1.473,   5.956e-3
1.475,   6.439e-3
1.477,   6.874e-3
1.479,   7.393e-3
1.481,   8.068e-3
1.483,   8.648e-3
1.485,   8.952e-3
1.487,   9.413e-3
1.489,   9.796e-3
1.491,   1.001e-2
1.493,   1.007e-2
1.495,   1.007e-2