File: Experimental Records and Raw Data/batch5/final500/B5_BEST_500_#1_High_Quality(#23)-219mV.txt
June 8, 2023   22:04:10
Linear Sweep Voltammetry
File: d:\current work\al_oer\electrochemical test data\batch 5\500\B5_BEST_500_#1_High_Quality(#23)-219mV.txt
Data Source:  Experiment
Instrument Model:  CHI660E
Header:
Note:

Init E (V) = 0.894

Final E (V) = 1.494

Scan Rate (V/s) = 0.010
Sample Interval (V) = 0.001
Quiet Time (sec) = 2
Sensitivity (A/V) = 0.001
Comp R (ohm) = 4.3

Results:

Channel 1:

Potential/V, Current/A
0.894,   2.223e-4
0.897,   2.721e-4
0.900,   2.825e-4
0.903,   2.782e-4
0.906,   2.682e-4
0.909,   2.759e-4
0.912,   2.638e-4
0.915,   2.600e-4
0.918,   2.648e-4
0.921,   2.522e-4
0.924,   2.519e-4
0.927,   2.530e-4
0.930,   2.414e-4
0.933,   2.460e-4
0.936,   2.413e-4
0.939,   2.326e-4
0.942,   2.407e-4
0.945,   2.313e-4
0.948,   2.287e-4
0.951,   2.344e-4
0.954,   2.254e-4
0.957,   2.257e-4
0.960,   2.258e-4
0.963,   2.182e-4
0.966,   2.240e-4
0.969,   2.182e-4
0.972,   2.139e-4
0.975,   2.195e-4
0.978,   2.135e-4
0.981,   2.120e-4
0.984,   2.160e-4
0.987,   2.094e-4
0.990,   2.113e-4
0.993,   2.108e-4
0.996,   2.046e-4
0.999,   2.105e-4
1.002,   2.051e-4
1.005,   2.032e-4
1.008,   2.085e-4
1.011,   2.023e-4
1.014,   2.021e-4
1.017,   2.054e-4
1.020,   1.980e-4
1.023,   2.021e-4
1.026,   2.014e-4
1.029,   1.961e-4
1.032,   2.015e-4
1.035,   1.984e-4
1.038,   1.975e-4
1.041,   2.033e-4
1.044,   1.959e-4
1.047,   1.971e-4
1.050,   1.994e-4
1.053,   1.937e-4
1.056,   1.986e-4
1.059,   1.963e-4
1.062,   1.939e-4
1.065,   2.002e-4
1.068,   1.940e-4
1.071,   1.937e-4
1.074,   2.003e-4
1.077,   1.931e-4
1.080,   1.964e-4
1.083,   2.001e-4
1.086,   1.925e-4
1.089,   1.996e-4
1.092,   1.961e-4
1.095,   1.941e-4
1.098,   2.014e-4
1.101,   1.951e-4
1.104,   1.968e-4
1.107,   2.019e-4
1.110,   1.951e-4
1.113,   1.991e-4
1.116,   1.993e-4
1.119,   1.960e-4
1.122,   2.030e-4
1.125,   1.986e-4
1.128,   1.986e-4
1.131,   2.080e-4
1.134,   1.981e-4
1.137,   2.029e-4
1.140,   2.071e-4
1.143,   1.996e-4
1.146,   2.073e-4
1.149,   2.052e-4
1.152,   2.018e-4
1.155,   2.118e-4
1.158,   2.051e-4
1.161,   2.063e-4
1.164,   2.150e-4
1.167,   2.055e-4
1.170,   2.100e-4
1.173,   2.142e-4
1.176,   2.083e-4
1.179,   2.163e-4
1.182,   2.123e-4
1.185,   2.131e-4
1.188,   2.226e-4
1.191,   2.141e-4
1.194,   2.170e-4
1.197,   2.251e-4
1.200,   2.167e-4
1.203,   2.225e-4
1.206,   2.223e-4
1.209,   2.194e-4
1.212,   2.298e-4
1.215,   2.244e-4
1.218,   2.246e-4
1.221,   2.365e-4
1.224,   2.289e-4
1.227,   2.330e-4
1.230,   2.406e-4
1.233,   2.301e-4
1.236,   2.391e-4
1.239,   2.380e-4
1.242,   2.347e-4
1.245,   2.462e-4
1.248,   2.421e-4
1.251,   2.406e-4
1.254,   2.553e-4
1.257,   2.447e-4
1.260,   2.493e-4
1.263,   2.572e-4
1.266,   2.484e-4
1.269,   2.612e-4
1.272,   2.585e-4
1.275,   2.539e-4
1.278,   2.709e-4
1.281,   2.629e-4
1.284,   2.626e-4
1.287,   2.786e-4
1.290,   2.674e-4
1.293,   2.742e-4
1.296,   2.829e-4
1.299,   2.712e-4
1.302,   2.893e-4
1.305,   2.853e-4
1.308,   2.819e-4
1.311,   3.024e-4
1.314,   2.904e-4
1.317,   2.957e-4
1.320,   3.092e-4
1.323,   2.993e-4
1.326,   3.102e-4
1.329,   3.164e-4
1.332,   3.063e-4
1.335,   3.320e-4
1.338,   3.255e-4
1.341,   3.208e-4
1.344,   3.505e-4
1.347,   3.334e-4
1.350,   3.408e-4
1.353,   3.595e-4
1.356,   3.448e-4
1.359,   3.706e-4
1.362,   3.674e-4
1.365,   3.623e-4
1.368,   4.006e-4
1.371,   3.824e-4
1.374,   3.902e-4
1.377,   4.303e-4
1.380,   4.075e-4
1.383,   4.308e-4
1.386,   4.526e-4
1.389,   4.415e-4
1.392,   4.867e-4
1.395,   4.833e-4
1.398,   4.921e-4
1.401,   5.527e-4
1.404,   5.376e-4
1.407,   5.677e-4
1.410,   6.266e-4
1.413,   6.174e-4
1.416,   6.788e-4
1.419,   7.240e-4
1.422,   7.467e-4
1.425,   8.508e-4
1.428,   8.885e-4
1.431,   9.637e-4
1.434,   1.118e-3
1.437,   1.173e-3
1.440,   1.322e-3
1.443,   1.514e-3
1.446,   1.640e-3
1.449,   1.933e-3
1.452,   2.138e-3
1.455,   2.418e-3
1.458,   2.885e-3
1.461,   3.110e-3
1.464,   3.620e-3
1.467,   4.234e-3
1.470,   4.560e-3
1.473,   5.308e-3
1.476,   5.971e-3
1.479,   6.579e-3
1.482,   7.601e-3
1.485,   8.090e-3
1.488,   8.925e-3
1.491,   9.486e-3
1.494,   9.663e-3