File: Experimental Records and Raw Data/batch5/final500/B5_BEST_500_#1_High_Quality(#17)-215mV.txt
June 9, 2023   11:11:40
Linear Sweep Voltammetry
File: d:\current work\al_oer\electrochemical test data\batch 5\500\B5_BEST_500_#1_High_Quality(#17)-215mV.txt
Data Source:  Experiment
Instrument Model:  CHI660E
Header:
Note:

Init E (V) = 0.896

Final E (V) = 1.500

Scan Rate (V/s) = 0.010
Sample Interval (V) = 0.001
Quiet Time (sec) = 2
Sensitivity (A/V) = 0.001
Comp R (ohm) = 5.1

Results:

Channel 1:

Potential/V, Current/A
0.896,   2.326e-4
0.899,   2.629e-4
0.902,   2.633e-4
0.905,   2.573e-4
0.908,   2.577e-4
0.911,   2.503e-4
0.914,   2.495e-4
0.917,   2.492e-4
0.920,   2.404e-4
0.923,   2.429e-4
0.926,   2.395e-4
0.929,   2.341e-4
0.932,   2.359e-4
0.935,   2.309e-4
0.938,   2.296e-4
0.941,   2.282e-4
0.944,   2.263e-4
0.947,   2.239e-4
0.950,   2.225e-4
0.953,   2.217e-4
0.956,   2.202e-4
0.959,   2.165e-4
0.962,   2.174e-4
0.965,   2.159e-4
0.968,   2.124e-4
0.971,   2.141e-4
0.974,   2.127e-4
0.977,   2.114e-4
0.980,   2.105e-4
0.983,   2.098e-4
0.986,   2.082e-4
0.989,   2.072e-4
0.992,   2.059e-4
0.995,   2.078e-4
0.998,   2.040e-4
1.001,   2.025e-4
1.004,   2.034e-4
1.007,   2.016e-4
1.010,   1.994e-4
1.013,   2.019e-4
1.016,   2.020e-4
1.019,   1.991e-4
1.022,   1.997e-4
1.025,   2.011e-4
1.028,   1.995e-4
1.031,   1.979e-4
1.034,   2.001e-4
1.037,   1.977e-4
1.040,   1.952e-4
1.043,   1.978e-4
1.046,   1.962e-4
1.049,   1.920e-4
1.052,   1.959e-4
1.055,   1.945e-4
1.058,   1.927e-4
1.061,   1.963e-4
1.064,   1.960e-4
1.067,   1.957e-4
1.070,   1.970e-4
1.073,   1.957e-4
1.076,   1.973e-4
1.079,   1.949e-4
1.082,   1.948e-4
1.085,   1.955e-4
1.088,   1.914e-4
1.091,   1.977e-4
1.094,   1.963e-4
1.097,   1.929e-4
1.100,   1.985e-4
1.103,   1.979e-4
1.106,   1.964e-4
1.109,   1.988e-4
1.112,   2.008e-4
1.115,   1.998e-4
1.118,   2.015e-4
1.121,   2.027e-4
1.124,   2.022e-4
1.127,   2.004e-4
1.130,   2.035e-4
1.133,   2.022e-4
1.136,   2.022e-4
1.139,   2.040e-4
1.142,   2.040e-4
1.145,   2.051e-4
1.148,   2.051e-4
1.151,   2.072e-4
1.154,   2.076e-4
1.157,   2.104e-4
1.160,   2.103e-4
1.163,   2.123e-4
1.166,   2.132e-4
1.169,   2.157e-4
1.172,   2.128e-4
1.175,   2.166e-4
1.178,   2.157e-4
1.181,   2.167e-4
1.184,   2.202e-4
1.187,   2.170e-4
1.190,   2.199e-4
1.193,   2.245e-4
1.196,   2.189e-4
1.199,   2.292e-4
1.202,   2.302e-4
1.205,   2.276e-4
1.208,   2.355e-4
1.211,   2.363e-4
1.214,   2.372e-4
1.217,   2.364e-4
1.220,   2.320e-4
1.223,   2.301e-4
1.226,   2.376e-4
1.229,   2.469e-4
1.232,   2.539e-4
1.235,   2.453e-4
1.238,   2.473e-4
1.241,   2.440e-4
1.244,   2.432e-4
1.247,   2.622e-4
1.250,   2.635e-4
1.253,   2.550e-4
1.256,   2.639e-4
1.259,   2.599e-4
1.262,   2.660e-4
1.265,   2.643e-4
1.268,   2.685e-4
1.271,   2.774e-4
1.274,   2.564e-4
1.277,   2.827e-4
1.280,   2.821e-4
1.283,   2.625e-4
1.286,   2.967e-4
1.289,   2.801e-4
1.292,   2.790e-4
1.295,   3.009e-4
1.298,   2.827e-4
1.301,   3.007e-4
1.304,   2.994e-4
1.307,   2.923e-4
1.310,   3.069e-4
1.313,   2.897e-4
1.316,   3.100e-4
1.319,   3.157e-4
1.322,   2.876e-4
1.325,   3.289e-4
1.328,   3.149e-4
1.331,   3.030e-4
1.334,   3.484e-4
1.337,   3.203e-4
1.340,   3.272e-4
1.343,   3.535e-4
1.346,   3.306e-4
1.349,   3.470e-4
1.352,   3.444e-4
1.355,   3.525e-4
1.358,   3.661e-4
1.361,   3.410e-4
1.364,   3.883e-4
1.367,   3.771e-4
1.370,   3.617e-4
1.373,   4.209e-4
1.376,   3.914e-4
1.379,   3.967e-4
1.382,   4.406e-4
1.385,   4.163e-4
1.388,   4.398e-4
1.391,   4.664e-4
1.394,   4.640e-4
1.397,   5.024e-4
1.400,   4.945e-4
1.403,   5.356e-4
1.406,   5.697e-4
1.409,   5.522e-4
1.412,   6.424e-4
1.415,   6.662e-4
1.418,   6.596e-4
1.421,   8.019e-4
1.424,   8.169e-4
1.427,   8.668e-4
1.430,   1.040e-3
1.433,   1.085e-3
1.436,   1.225e-3
1.439,   1.434e-3
1.442,   1.567e-3
1.445,   1.814e-3
1.448,   2.064e-3
1.451,   2.398e-3
1.454,   2.781e-3
1.457,   3.134e-3
1.460,   3.768e-3
1.463,   4.401e-3
1.466,   4.900e-3
1.469,   5.823e-3
1.472,   6.630e-3
1.475,   7.203e-3
1.478,   8.371e-3
1.481,   9.238e-3
1.484,   9.904e-3
1.487,   1.007e-2
1.490,   1.007e-2
1.493,   1.007e-2
1.496,   1.007e-2
1.499,   1.007e-2
1.500,   1.007e-2