File: Experimental Records and Raw Data/batch5/final500/B5_BEST_500_#1_Full(#11)-209mV.txt
June 9, 2023   11:37:47
Linear Sweep Voltammetry
File: d:\current work\al_oer\electrochemical test data\batch 5\500\B5_BEST_500_#1_Full(#11)-209mV.txt
Data Source:  Experiment
Instrument Model:  CHI660E
Header:
Note:

Init E (V) = 0.900

Final E (V) = 1.498

Scan Rate (V/s) = 0.010
Sample Interval (V) = 0.001
Quiet Time (sec) = 2
Sensitivity (A/V) = 0.001
Comp R (ohm) = 5.2

Results:

Channel 1:

Potential/V, Current/A
0.900,   2.226e-4
0.902,   2.602e-4
0.904,   2.472e-4
0.906,   2.590e-4
0.908,   2.493e-4
0.910,   2.473e-4
0.912,   2.535e-4
0.914,   2.383e-4
0.916,   2.477e-4
0.918,   2.380e-4
0.920,   2.385e-4
0.922,   2.421e-4
0.924,   2.290e-4
0.926,   2.368e-4
0.928,   2.283e-4
0.930,   2.300e-4
0.932,   2.321e-4
0.934,   2.216e-4
0.936,   2.279e-4
0.938,   2.186e-4
0.940,   2.224e-4
0.942,   2.240e-4
0.944,   2.138e-4
0.946,   2.230e-4
0.948,   2.166e-4
0.950,   2.139e-4
0.952,   2.215e-4
0.954,   2.091e-4
0.956,   2.173e-4
0.958,   2.098e-4
0.960,   2.083e-4
0.962,   2.144e-4
0.964,   2.035e-4
0.966,   2.124e-4
0.968,   2.073e-4
0.970,   2.062e-4
0.972,   2.127e-4
0.974,   2.023e-4
0.976,   2.071e-4
0.978,   2.019e-4
0.980,   2.027e-4
0.982,   2.071e-4
0.984,   1.978e-4
0.986,   2.021e-4
0.988,   1.983e-4
0.990,   1.993e-4
0.992,   2.053e-4
0.994,   1.963e-4
0.996,   1.997e-4
0.998,   1.956e-4
1.000,   1.978e-4
1.002,   2.031e-4
1.004,   1.939e-4
1.006,   1.980e-4
1.008,   1.928e-4
1.010,   1.957e-4
1.012,   1.997e-4
1.014,   1.934e-4
1.016,   1.961e-4
1.018,   1.936e-4
1.020,   1.936e-4
1.022,   1.986e-4
1.024,   1.918e-4
1.026,   1.946e-4
1.028,   1.926e-4
1.030,   1.928e-4
1.032,   1.973e-4
1.034,   1.910e-4
1.036,   1.945e-4
1.038,   1.922e-4
1.040,   1.907e-4
1.042,   1.990e-4
1.044,   1.896e-4
1.046,   1.960e-4
1.048,   1.925e-4
1.050,   1.928e-4
1.052,   1.965e-4
1.054,   1.892e-4
1.056,   1.954e-4
1.058,   1.925e-4
1.060,   1.918e-4
1.062,   1.977e-4
1.064,   1.896e-4
1.066,   1.959e-4
1.068,   1.931e-4
1.070,   1.927e-4
1.072,   1.988e-4
1.074,   1.898e-4
1.076,   1.966e-4
1.078,   1.942e-4
1.080,   1.956e-4
1.082,   2.006e-4
1.084,   1.932e-4
1.086,   1.974e-4
1.088,   1.961e-4
1.090,   1.960e-4
1.092,   2.031e-4
1.094,   1.949e-4
1.096,   1.987e-4
1.098,   1.977e-4
1.100,   1.990e-4
1.102,   2.042e-4
1.104,   1.966e-4
1.106,   2.022e-4
1.108,   2.017e-4
1.110,   2.015e-4
1.112,   2.072e-4
1.114,   2.003e-4
1.116,   2.054e-4
1.118,   2.039e-4
1.120,   2.046e-4
1.122,   2.115e-4
1.124,   2.032e-4
1.126,   2.093e-4
1.128,   2.080e-4
1.130,   2.090e-4
1.132,   2.147e-4
1.134,   2.042e-4
1.136,   2.122e-4
1.138,   2.116e-4
1.140,   2.113e-4
1.142,   2.225e-4
1.144,   2.070e-4
1.146,   2.173e-4
1.148,   2.169e-4
1.150,   2.141e-4
1.152,   2.253e-4
1.154,   2.118e-4
1.156,   2.231e-4
1.158,   2.190e-4
1.160,   2.197e-4
1.162,   2.341e-4
1.164,   2.163e-4
1.166,   2.253e-4
1.168,   2.233e-4
1.170,   2.225e-4
1.172,   2.352e-4
1.174,   2.216e-4
1.176,   2.308e-4
1.178,   2.317e-4
1.180,   2.283e-4
1.182,   2.403e-4
1.184,   2.273e-4
1.186,   2.358e-4
1.188,   2.356e-4
1.190,   2.339e-4
1.192,   2.439e-4
1.194,   2.326e-4
1.196,   2.418e-4
1.198,   2.407e-4
1.200,   2.397e-4
1.202,   2.519e-4
1.204,   2.380e-4
1.206,   2.493e-4
1.208,   2.456e-4
1.210,   2.447e-4
1.212,   2.603e-4
1.214,   2.438e-4
1.216,   2.584e-4
1.218,   2.545e-4
1.220,   2.526e-4
1.222,   2.665e-4
1.224,   2.485e-4
1.226,   2.651e-4
1.228,   2.653e-4
1.230,   2.599e-4
1.232,   2.743e-4
1.234,   2.571e-4
1.236,   2.760e-4
1.238,   2.741e-4
1.240,   2.661e-4
1.242,   2.828e-4
1.244,   2.626e-4
1.246,   2.834e-4
1.248,   2.851e-4
1.250,   2.753e-4
1.252,   2.883e-4
1.254,   2.736e-4
1.256,   2.937e-4
1.258,   2.923e-4
1.260,   2.877e-4
1.262,   2.980e-4
1.264,   2.850e-4
1.266,   3.034e-4
1.268,   3.092e-4
1.270,   2.930e-4
1.272,   3.126e-4
1.274,   2.952e-4
1.276,   3.159e-4
1.278,   3.254e-4
1.280,   3.040e-4
1.282,   3.222e-4
1.284,   3.061e-4
1.286,   3.265e-4
1.288,   3.302e-4
1.290,   3.169e-4
1.292,   3.338e-4
1.294,   3.167e-4
1.296,   3.386e-4
1.298,   3.456e-4
1.300,   3.280e-4
1.302,   3.482e-4
1.304,   3.311e-4
1.306,   3.519e-4
1.308,   3.613e-4
1.310,   3.407e-4
1.312,   3.660e-4
1.314,   3.442e-4
1.316,   3.654e-4
1.318,   3.783e-4
1.320,   3.566e-4
1.322,   3.850e-4
1.324,   3.599e-4
1.326,   3.858e-4
1.328,   3.847e-4
1.330,   3.750e-4
1.332,   4.063e-4
1.334,   3.768e-4
1.336,   4.003e-4
1.338,   4.082e-4
1.340,   3.901e-4
1.342,   4.259e-4
1.344,   3.956e-4
1.346,   4.222e-4
1.348,   4.283e-4
1.350,   4.098e-4
1.352,   4.477e-4
1.354,   4.152e-4
1.356,   4.528e-4
1.358,   4.484e-4
1.360,   4.412e-4
1.362,   4.717e-4
1.364,   4.421e-4
1.366,   4.768e-4
1.368,   4.879e-4
1.370,   4.703e-4
1.372,   5.135e-4
1.374,   4.788e-4
1.376,   5.188e-4
1.378,   5.307e-4
1.380,   5.232e-4
1.382,   5.671e-4
1.384,   5.276e-4
1.386,   5.754e-4
1.388,   5.844e-4
1.390,   5.763e-4
1.392,   6.347e-4
1.394,   5.979e-4
1.396,   6.553e-4
1.398,   6.765e-4
1.400,   6.635e-4
1.402,   7.397e-4
1.404,   6.972e-4
1.406,   7.903e-4
1.408,   8.156e-4
1.410,   8.117e-4
1.412,   8.716e-4
1.414,   8.488e-4
1.416,   9.447e-4
1.418,   1.013e-3
1.420,   1.010e-3
1.422,   1.108e-3
1.424,   1.098e-3
1.426,   1.246e-3
1.428,   1.350e-3
1.430,   1.359e-3
1.432,   1.519e-3
1.434,   1.529e-3
1.436,   1.757e-3
1.438,   1.921e-3
1.440,   1.981e-3
1.442,   2.223e-3
1.444,   2.291e-3
1.446,   2.659e-3
1.448,   2.977e-3
1.450,   3.077e-3
1.452,   3.482e-3
1.454,   3.678e-3
1.456,   4.179e-3
1.458,   4.679e-3
1.460,   4.994e-3
1.462,   5.656e-3
1.464,   5.867e-3
1.466,   6.527e-3
1.468,   7.188e-3
1.470,   7.381e-3
1.472,   8.132e-3
1.474,   8.525e-3
1.476,   9.170e-3
1.478,   9.625e-3
1.480,   9.591e-3
1.482,   9.864e-3
1.484,   9.929e-3
1.486,   1.005e-2
1.488,   1.007e-2
1.490,   1.007e-2
1.492,   1.007e-2
1.494,   1.007e-2
1.496,   1.007e-2
1.498,   1.007e-2