File: Experimental Records and Raw Data/batch5/final500/B5_BEST_500_#1_Full(#9)-264mV.txt
June 8, 2023   21:06:57
Linear Sweep Voltammetry
File: d:\current work\al_oer\electrochemical test data\batch 5\500\B5_BEST_500_#1_Full(#9)-264mV.txt
Data Source:  Experiment
Instrument Model:  CHI660E
Header:
Note:

Init E (V) = 0.894

Final E (V) = 1.596

Scan Rate (V/s) = 0.010
Sample Interval (V) = 0.001
Quiet Time (sec) = 2
Sensitivity (A/V) = 0.001
Comp R (ohm) = 5.1

Results:

Channel 1:

Potential/V, Current/A
0.894,   4.858e-5
0.897,   5.216e-5
0.900,   5.125e-5
0.903,   4.998e-5
0.906,   4.921e-5
0.909,   4.821e-5
0.912,   4.778e-5
0.915,   4.653e-5
0.918,   4.592e-5
0.921,   4.508e-5
0.924,   4.439e-5
0.927,   4.370e-5
0.930,   4.300e-5
0.933,   4.258e-5
0.936,   4.191e-5
0.939,   4.144e-5
0.942,   4.095e-5
0.945,   4.050e-5
0.948,   4.010e-5
0.951,   3.944e-5
0.954,   3.921e-5
0.957,   3.878e-5
0.960,   3.850e-5
0.963,   3.805e-5
0.966,   3.796e-5
0.969,   3.747e-5
0.972,   3.731e-5
0.975,   3.697e-5
0.978,   3.653e-5
0.981,   3.653e-5
0.984,   3.606e-5
0.987,   3.584e-5
0.990,   3.568e-5
0.993,   3.569e-5
0.996,   3.534e-5
0.999,   3.511e-5
1.002,   3.496e-5
1.005,   3.475e-5
1.008,   3.463e-5
1.011,   3.439e-5
1.014,   3.433e-5
1.017,   3.410e-5
1.020,   3.411e-5
1.023,   3.390e-5
1.026,   3.368e-5
1.029,   3.368e-5
1.032,   3.332e-5
1.035,   3.348e-5
1.038,   3.336e-5
1.041,   3.348e-5
1.044,   3.326e-5
1.047,   3.316e-5
1.050,   3.314e-5
1.053,   3.302e-5
1.056,   3.305e-5
1.059,   3.292e-5
1.062,   3.300e-5
1.065,   3.293e-5
1.068,   3.301e-5
1.071,   3.285e-5
1.074,   3.296e-5
1.077,   3.283e-5
1.080,   3.286e-5
1.083,   3.296e-5
1.086,   3.290e-5
1.089,   3.309e-5
1.092,   3.307e-5
1.095,   3.311e-5
1.098,   3.309e-5
1.101,   3.324e-5
1.104,   3.323e-5
1.107,   3.304e-5
1.110,   3.355e-5
1.113,   3.351e-5
1.116,   3.365e-5
1.119,   3.346e-5
1.122,   3.379e-5
1.125,   3.375e-5
1.128,   3.384e-5
1.131,   3.401e-5
1.134,   3.420e-5
1.137,   3.435e-5
1.140,   3.453e-5
1.143,   3.477e-5
1.146,   3.485e-5
1.149,   3.485e-5
1.152,   3.515e-5
1.155,   3.522e-5
1.158,   3.548e-5
1.161,   3.556e-5
1.164,   3.594e-5
1.167,   3.596e-5
1.170,   3.612e-5
1.173,   3.616e-5
1.176,   3.635e-5
1.179,   3.668e-5
1.182,   3.682e-5
1.185,   3.721e-5
1.188,   3.722e-5
1.191,   3.766e-5
1.194,   3.774e-5
1.197,   3.796e-5
1.200,   3.820e-5
1.203,   3.864e-5
1.206,   3.861e-5
1.209,   3.900e-5
1.212,   3.949e-5
1.215,   3.952e-5
1.218,   3.987e-5
1.221,   4.018e-5
1.224,   4.035e-5
1.227,   4.081e-5
1.230,   4.108e-5
1.233,   4.163e-5
1.236,   4.181e-5
1.239,   4.236e-5
1.242,   4.251e-5
1.245,   4.284e-5
1.248,   4.338e-5
1.251,   4.347e-5
1.254,   4.422e-5
1.257,   4.439e-5
1.260,   4.532e-5
1.263,   4.528e-5
1.266,   4.599e-5
1.269,   4.631e-5
1.272,   4.650e-5
1.275,   4.718e-5
1.278,   4.764e-5
1.281,   4.837e-5
1.284,   4.840e-5
1.287,   4.959e-5
1.290,   4.983e-5
1.293,   5.038e-5
1.296,   5.095e-5
1.299,   5.121e-5
1.302,   5.211e-5
1.305,   5.267e-5
1.308,   5.349e-5
1.311,   5.347e-5
1.314,   5.473e-5
1.317,   5.530e-5
1.320,   5.550e-5
1.323,   5.636e-5
1.326,   5.700e-5
1.329,   5.786e-5
1.332,   5.835e-5
1.335,   5.967e-5
1.338,   6.015e-5
1.341,   6.104e-5
1.344,   6.187e-5
1.347,   6.264e-5
1.350,   6.360e-5
1.353,   6.498e-5
1.356,   6.653e-5
1.359,   6.697e-5
1.362,   6.864e-5
1.365,   6.949e-5
1.368,   7.068e-5
1.371,   7.241e-5
1.374,   7.394e-5
1.377,   7.566e-5
1.380,   7.713e-5
1.383,   7.960e-5
1.386,   8.113e-5
1.389,   8.371e-5
1.392,   8.561e-5
1.395,   8.801e-5
1.398,   9.149e-5
1.401,   9.407e-5
1.404,   9.843e-5
1.407,   1.017e-4
1.410,   1.071e-4
1.413,   1.120e-4
1.416,   1.177e-4
1.419,   1.243e-4
1.422,   1.325e-4
1.425,   1.421e-4
1.428,   1.527e-4
1.431,   1.668e-4
1.434,   1.811e-4
1.437,   1.999e-4
1.440,   2.208e-4
1.443,   2.450e-4
1.446,   2.748e-4
1.449,   3.081e-4
1.452,   3.494e-4
1.455,   3.931e-4
1.458,   4.497e-4
1.461,   5.080e-4
1.464,   5.765e-4
1.467,   6.558e-4
1.470,   7.395e-4
1.473,   8.436e-4
1.476,   9.518e-4
1.479,   1.085e-3
1.482,   1.216e-3
1.485,   1.372e-3
1.488,   1.537e-3
1.491,   1.698e-3
1.494,   1.916e-3
1.497,   2.106e-3
1.500,   2.354e-3
1.503,   2.569e-3
1.506,   2.845e-3
1.509,   3.083e-3
1.512,   3.337e-3
1.515,   3.640e-3
1.518,   3.860e-3
1.521,   4.184e-3
1.524,   4.426e-3
1.527,   4.797e-3
1.530,   5.073e-3
1.533,   5.392e-3
1.536,   5.694e-3
1.539,   6.026e-3
1.542,   6.357e-3
1.545,   6.558e-3
1.548,   7.051e-3
1.551,   7.289e-3
1.554,   7.727e-3
1.557,   8.103e-3
1.560,   8.353e-3
1.563,   8.818e-3
1.566,   8.860e-3
1.569,   9.295e-3
1.572,   9.380e-3
1.575,   9.667e-3
1.578,   9.706e-3
1.581,   9.925e-3
1.584,   1.004e-2
1.587,   1.005e-2
1.590,   1.007e-2
1.593,   1.007e-2
1.596,   1.007e-2