File: Experimental Records and Raw Data/batch5/final500/B5_BEST_500_#1_Full(#14)-199mV.txt
June 8, 2023   21:15:31
Linear Sweep Voltammetry
File: d:\current work\al_oer\electrochemical test data\batch 5\500\B5_BEST_500_#1_Full(#14)-199mV.txt
Data Source:  Experiment
Instrument Model:  CHI660E
Header:
Note:

Init E (V) = 0.898

Final E (V) = 1.489

Scan Rate (V/s) = 0.010
Sample Interval (V) = 0.001
Quiet Time (sec) = 2
Sensitivity (A/V) = 0.001
Comp R (ohm) = 3.8

Results:

Channel 1:

Potential/V, Current/A
0.898,   2.967e-4
0.900,   3.678e-4
0.902,   3.543e-4
0.904,   3.614e-4
0.906,   3.558e-4
0.908,   3.565e-4
0.910,   3.531e-4
0.912,   3.487e-4
0.914,   3.543e-4
0.916,   3.425e-4
0.918,   3.543e-4
0.920,   3.374e-4
0.922,   3.494e-4
0.924,   3.266e-4
0.926,   3.394e-4
0.928,   3.239e-4
0.930,   3.329e-4
0.932,   3.194e-4
0.934,   3.218e-4
0.936,   3.191e-4
0.938,   3.209e-4
0.940,   3.206e-4
0.942,   3.156e-4
0.944,   3.213e-4
0.946,   3.160e-4
0.948,   3.229e-4
0.950,   3.096e-4
0.952,   3.220e-4
0.954,   3.027e-4
0.956,   3.194e-4
0.958,   2.967e-4
0.960,   3.122e-4
0.962,   2.962e-4
0.964,   3.057e-4
0.966,   2.938e-4
0.968,   3.015e-4
0.970,   2.995e-4
0.972,   2.980e-4
0.974,   2.998e-4
0.976,   2.968e-4
0.978,   3.032e-4
0.980,   2.909e-4
0.982,   3.030e-4
0.984,   2.910e-4
0.986,   3.034e-4
0.988,   2.860e-4
0.990,   2.992e-4
0.992,   2.829e-4
0.994,   2.942e-4
0.996,   2.815e-4
0.998,   2.890e-4
1.000,   2.822e-4
1.002,   2.893e-4
1.004,   2.838e-4
1.006,   2.873e-4
1.008,   2.889e-4
1.010,   2.839e-4
1.012,   2.920e-4
1.014,   2.842e-4
1.016,   2.954e-4
1.018,   2.792e-4
1.020,   2.921e-4
1.022,   2.750e-4
1.024,   2.872e-4
1.026,   2.746e-4
1.028,   2.810e-4
1.030,   2.717e-4
1.032,   2.833e-4
1.034,   2.759e-4
1.036,   2.795e-4
1.038,   2.774e-4
1.040,   2.823e-4
1.042,   2.869e-4
1.044,   2.798e-4
1.046,   2.882e-4
1.048,   2.733e-4
1.050,   2.920e-4
1.052,   2.725e-4
1.054,   2.869e-4
1.056,   2.712e-4
1.058,   2.843e-4
1.060,   2.700e-4
1.062,   2.869e-4
1.064,   2.709e-4
1.066,   2.837e-4
1.068,   2.724e-4
1.070,   2.816e-4
1.072,   2.781e-4
1.074,   2.796e-4
1.076,   2.857e-4
1.078,   2.785e-4
1.080,   2.902e-4
1.082,   2.759e-4
1.084,   2.925e-4
1.086,   2.737e-4
1.088,   2.946e-4
1.090,   2.726e-4
1.092,   2.933e-4
1.094,   2.696e-4
1.096,   2.910e-4
1.098,   2.758e-4
1.100,   2.847e-4
1.102,   2.892e-4
1.104,   2.823e-4
1.106,   2.950e-4
1.108,   2.837e-4
1.110,   2.948e-4
1.112,   2.865e-4
1.114,   2.999e-4
1.116,   2.803e-4
1.118,   3.009e-4
1.120,   2.804e-4
1.122,   3.044e-4
1.124,   2.820e-4
1.126,   3.013e-4
1.128,   2.855e-4
1.130,   2.998e-4
1.132,   2.882e-4
1.134,   2.972e-4
1.136,   2.979e-4
1.138,   2.951e-4
1.140,   3.065e-4
1.142,   2.937e-4
1.144,   3.126e-4
1.146,   2.938e-4
1.148,   3.158e-4
1.150,   2.942e-4
1.152,   3.139e-4
1.154,   2.977e-4
1.156,   3.160e-4
1.158,   2.975e-4
1.160,   3.155e-4
1.162,   3.036e-4
1.164,   3.127e-4
1.166,   3.096e-4
1.168,   3.117e-4
1.170,   3.213e-4
1.172,   3.111e-4
1.174,   3.269e-4
1.176,   3.117e-4
1.178,   3.341e-4
1.180,   3.087e-4
1.182,   3.408e-4
1.184,   3.102e-4
1.186,   3.402e-4
1.188,   3.139e-4
1.190,   3.378e-4
1.192,   3.187e-4
1.194,   3.354e-4
1.196,   3.247e-4
1.198,   3.336e-4
1.200,   3.366e-4
1.202,   3.349e-4
1.204,   3.449e-4
1.206,   3.297e-4
1.208,   3.579e-4
1.210,   3.285e-4
1.212,   3.657e-4
1.214,   3.318e-4
1.216,   3.678e-4
1.218,   3.339e-4
1.220,   3.688e-4
1.222,   3.387e-4
1.224,   3.651e-4
1.226,   3.479e-4
1.228,   3.621e-4
1.230,   3.537e-4
1.232,   3.568e-4
1.234,   3.712e-4
1.236,   3.555e-4
1.238,   3.856e-4
1.240,   3.560e-4
1.242,   3.989e-4
1.244,   3.539e-4
1.246,   4.027e-4
1.248,   3.592e-4
1.250,   4.049e-4
1.252,   3.662e-4
1.254,   3.982e-4
1.256,   3.735e-4
1.258,   3.935e-4
1.260,   3.858e-4
1.262,   3.904e-4
1.264,   4.025e-4
1.266,   3.947e-4
1.268,   4.185e-4
1.270,   3.904e-4
1.272,   4.330e-4
1.274,   3.913e-4
1.276,   4.427e-4
1.278,   3.931e-4
1.280,   4.440e-4
1.282,   4.015e-4
1.284,   4.452e-4
1.286,   4.074e-4
1.288,   4.435e-4
1.290,   4.228e-4
1.292,   4.361e-4
1.294,   4.393e-4
1.296,   4.345e-4
1.298,   4.602e-4
1.300,   4.367e-4
1.302,   4.639e-4
1.304,   4.376e-4
1.306,   4.788e-4
1.308,   4.413e-4
1.310,   4.820e-4
1.312,   4.521e-4
1.314,   4.842e-4
1.316,   4.629e-4
1.318,   4.889e-4
1.320,   4.778e-4
1.322,   4.885e-4
1.324,   4.995e-4
1.326,   4.900e-4
1.328,   5.185e-4
1.330,   4.915e-4
1.332,   5.345e-4
1.334,   4.918e-4
1.336,   5.509e-4
1.338,   4.982e-4
1.340,   5.607e-4
1.342,   5.077e-4
1.344,   5.510e-4
1.346,   5.282e-4
1.348,   5.545e-4
1.350,   5.466e-4
1.352,   5.647e-4
1.354,   5.698e-4
1.356,   5.669e-4
1.358,   5.986e-4
1.360,   5.750e-4
1.362,   6.215e-4
1.364,   5.859e-4
1.366,   6.497e-4
1.368,   6.012e-4
1.370,   6.715e-4
1.372,   6.211e-4
1.374,   6.787e-4
1.376,   6.475e-4
1.378,   7.030e-4
1.380,   6.786e-4
1.382,   7.209e-4
1.384,   7.211e-4
1.386,   7.429e-4
1.388,   7.639e-4
1.390,   7.699e-4
1.392,   8.259e-4
1.394,   7.965e-4
1.396,   8.997e-4
1.398,   8.373e-4
1.400,   9.739e-4
1.402,   8.902e-4
1.404,   1.032e-3
1.406,   9.618e-4
1.408,   1.100e-3
1.410,   1.043e-3
1.412,   1.176e-3
1.414,   1.158e-3
1.416,   1.255e-3
1.418,   1.294e-3
1.420,   1.371e-3
1.422,   1.474e-3
1.424,   1.503e-3
1.426,   1.687e-3
1.428,   1.680e-3
1.430,   1.964e-3
1.432,   1.910e-3
1.434,   2.293e-3
1.436,   2.180e-3
1.438,   2.628e-3
1.440,   2.600e-3
1.442,   3.056e-3
1.444,   3.130e-3
1.446,   3.586e-3
1.448,   3.813e-3
1.450,   4.236e-3
1.452,   4.730e-3
1.454,   5.046e-3
1.456,   5.897e-3
1.458,   6.083e-3
1.460,   7.156e-3
1.462,   7.170e-3
1.464,   8.425e-3
1.466,   8.445e-3
1.468,   9.361e-3
1.470,   9.548e-3
1.472,   1.003e-2
1.474,   1.007e-2
1.476,   1.007e-2
1.478,   1.007e-2
1.480,   1.007e-2
1.482,   1.007e-2
1.484,   1.007e-2
1.486,   1.007e-2
1.488,   1.007e-2
1.489,   1.007e-2