File: Experimental Records and Raw Data/batch4/final400/B4_BEST_400_#5_Full-210mV.txt
Mar. 27, 2023   14:21:23
Linear Sweep Voltammetry
File: d:\current work\al_oer\electrochemical test data\batch 4\400\B4_BEST_400_#5_Full-210mV.txt
Data Source:  Experiment
Instrument Model:  CHI660E
Header:
Note:

Init E (V) = 1.081

Final E (V) = 1.508

Scan Rate (V/s) = 0.010
Sample Interval (V) = 0.001
Quiet Time (sec) = 2
Sensitivity (A/V) = 0.001
Comp R (ohm) = 5.8

Results:

Channel 1:

Potential/V, Current/A
1.081,   9.747e-5
1.083,   9.075e-5
1.085,   8.210e-5
1.087,   7.519e-5
1.089,   6.970e-5
1.091,   6.522e-5
1.093,   6.145e-5
1.095,   5.832e-5
1.097,   5.573e-5
1.099,   5.354e-5
1.101,   5.159e-5
1.103,   4.976e-5
1.105,   4.824e-5
1.107,   4.692e-5
1.109,   4.575e-5
1.111,   4.462e-5
1.113,   4.369e-5
1.115,   4.292e-5
1.117,   4.210e-5
1.119,   4.132e-5
1.121,   4.070e-5
1.123,   4.013e-5
1.125,   3.959e-5
1.127,   3.914e-5
1.129,   3.863e-5
1.131,   3.825e-5
1.133,   3.790e-5
1.135,   3.757e-5
1.137,   3.728e-5
1.139,   3.704e-5
1.141,   3.681e-5
1.143,   3.647e-5
1.145,   3.628e-5
1.147,   3.611e-5
1.149,   3.591e-5
1.151,   3.568e-5
1.153,   3.562e-5
1.155,   3.546e-5
1.157,   3.532e-5
1.159,   3.517e-5
1.161,   3.507e-5
1.163,   3.497e-5
1.165,   3.496e-5
1.167,   3.478e-5
1.169,   3.470e-5
1.171,   3.472e-5
1.173,   3.460e-5
1.175,   3.455e-5
1.177,   3.446e-5
1.179,   3.448e-5
1.181,   3.445e-5
1.183,   3.442e-5
1.185,   3.440e-5
1.187,   3.439e-5
1.189,   3.438e-5
1.191,   3.440e-5
1.193,   3.436e-5
1.195,   3.443e-5
1.197,   3.437e-5
1.199,   3.438e-5
1.201,   3.446e-5
1.203,   3.450e-5
1.205,   3.455e-5
1.207,   3.457e-5
1.209,   3.458e-5
1.211,   3.470e-5
1.213,   3.471e-5
1.215,   3.479e-5
1.217,   3.488e-5
1.219,   3.493e-5
1.221,   3.505e-5
1.223,   3.509e-5
1.225,   3.513e-5
1.227,   3.524e-5
1.229,   3.534e-5
1.231,   3.538e-5
1.233,   3.545e-5
1.235,   3.558e-5
1.237,   3.571e-5
1.239,   3.577e-5
1.241,   3.586e-5
1.243,   3.606e-5
1.245,   3.614e-5
1.247,   3.622e-5
1.249,   3.636e-5
1.251,   3.654e-5
1.253,   3.670e-5
1.255,   3.682e-5
1.257,   3.691e-5
1.259,   3.713e-5
1.261,   3.724e-5
1.263,   3.737e-5
1.265,   3.750e-5
1.267,   3.769e-5
1.269,   3.783e-5
1.271,   3.798e-5
1.273,   3.814e-5
1.275,   3.841e-5
1.277,   3.859e-5
1.279,   3.875e-5
1.281,   3.902e-5
1.283,   3.929e-5
1.285,   3.947e-5
1.287,   3.970e-5
1.289,   3.993e-5
1.291,   4.033e-5
1.293,   4.061e-5
1.295,   4.085e-5
1.297,   4.115e-5
1.299,   4.147e-5
1.301,   4.182e-5
1.303,   4.214e-5
1.305,   4.249e-5
1.307,   4.303e-5
1.309,   4.335e-5
1.311,   4.372e-5
1.313,   4.417e-5
1.315,   4.471e-5
1.317,   4.516e-5
1.319,   4.565e-5
1.321,   4.612e-5
1.323,   4.681e-5
1.325,   4.737e-5
1.327,   4.797e-5
1.329,   4.866e-5
1.331,   4.942e-5
1.333,   5.019e-5
1.335,   5.090e-5
1.337,   5.177e-5
1.339,   5.280e-5
1.341,   5.379e-5
1.343,   5.482e-5
1.345,   5.601e-5
1.347,   5.720e-5
1.349,   5.868e-5
1.351,   6.022e-5
1.353,   6.179e-5
1.355,   6.382e-5
1.357,   6.588e-5
1.359,   6.823e-5
1.361,   7.079e-5
1.363,   7.392e-5
1.365,   7.738e-5
1.367,   8.107e-5
1.369,   8.530e-5
1.371,   9.020e-5
1.373,   9.568e-5
1.375,   1.019e-4
1.377,   1.091e-4
1.379,   1.173e-4
1.381,   1.264e-4
1.383,   1.368e-4
1.385,   1.485e-4
1.387,   1.619e-4
1.389,   1.768e-4
1.391,   1.937e-4
1.393,   2.124e-4
1.395,   2.336e-4
1.397,   2.573e-4
1.399,   2.836e-4
1.401,   3.128e-4
1.403,   3.454e-4
1.405,   3.811e-4
1.407,   4.207e-4
1.409,   4.643e-4
1.411,   5.123e-4
1.413,   5.648e-4
1.415,   6.225e-4
1.417,   6.853e-4
1.419,   7.540e-4
1.421,   8.284e-4
1.423,   9.095e-4
1.425,   9.970e-4
1.427,   1.092e-3
1.429,   1.194e-3
1.431,   1.304e-3
1.433,   1.422e-3
1.435,   1.548e-3
1.437,   1.682e-3
1.439,   1.828e-3
1.441,   1.980e-3
1.443,   2.141e-3
1.445,   2.311e-3
1.447,   2.487e-3
1.449,   2.673e-3
1.451,   2.870e-3
1.453,   3.076e-3
1.455,   3.290e-3
1.457,   3.512e-3
1.459,   3.740e-3
1.461,   3.976e-3
1.463,   4.230e-3
1.465,   4.476e-3
1.467,   4.724e-3
1.469,   4.983e-3
1.471,   5.241e-3
1.473,   5.503e-3
1.475,   5.770e-3
1.477,   6.030e-3
1.479,   6.294e-3
1.481,   6.576e-3
1.483,   6.841e-3
1.485,   7.144e-3
1.487,   7.482e-3
1.489,   7.722e-3
1.491,   7.955e-3
1.493,   8.237e-3
1.495,   8.429e-3
1.497,   8.695e-3
1.499,   8.939e-3
1.501,   9.128e-3
1.503,   9.350e-3
1.505,   9.547e-3
1.507,   9.771e-3
1.508,   9.870e-3