File: Experimental Records and Raw Data/batch4/final400/B4_BEST_400_#3_High_Quality(#19)-191mV.txt
Mar. 27, 2023   13:56:36
Linear Sweep Voltammetry
File: d:\current work\al_oer\electrochemical test data\batch 4\400\B4_BEST_400_#3_High_Quality(#19)-191mV.txt
Data Source:  Experiment
Instrument Model:  CHI660E
Header:
Note:

Init E (V) = 1.040

Final E (V) = 1.539

Scan Rate (V/s) = 0.010
Sample Interval (V) = 0.001
Quiet Time (sec) = 2
Sensitivity (A/V) = 0.001
Comp R (ohm) = 5.1

Results:

Channel 1:
Ep = 1.334V
ip = 1.003e-2A
Ah = 6.442e-2C

Potential/V, Current/A
1.040,   3.768e-5
1.042,   3.884e-5
1.044,   3.572e-5
1.046,   3.313e-5
1.048,   3.121e-5
1.050,   2.961e-5
1.052,   2.826e-5
1.054,   2.717e-5
1.056,   2.623e-5
1.058,   2.552e-5
1.060,   2.489e-5
1.062,   2.425e-5
1.064,   2.380e-5
1.066,   2.345e-5
1.068,   2.309e-5
1.070,   2.276e-5
1.072,   2.250e-5
1.074,   2.246e-5
1.076,   2.221e-5
1.078,   2.209e-5
1.080,   2.199e-5
1.082,   2.198e-5
1.084,   2.195e-5
1.086,   2.193e-5
1.088,   2.192e-5
1.090,   2.202e-5
1.092,   2.203e-5
1.094,   2.206e-5
1.096,   2.219e-5
1.098,   2.239e-5
1.100,   2.248e-5
1.102,   2.253e-5
1.104,   2.269e-5
1.106,   2.297e-5
1.108,   2.313e-5
1.110,   2.325e-5
1.112,   2.349e-5
1.114,   2.374e-5
1.116,   2.390e-5
1.118,   2.412e-5
1.120,   2.423e-5
1.122,   2.461e-5
1.124,   2.480e-5
1.126,   2.487e-5
1.128,   2.512e-5
1.130,   2.549e-5
1.132,   2.559e-5
1.134,   2.577e-5
1.136,   2.596e-5
1.138,   2.631e-5
1.140,   2.646e-5
1.142,   2.658e-5
1.144,   2.675e-5
1.146,   2.698e-5
1.148,   2.711e-5
1.150,   2.729e-5
1.152,   2.728e-5
1.154,   2.755e-5
1.156,   2.757e-5
1.158,   2.761e-5
1.160,   2.775e-5
1.162,   2.793e-5
1.164,   2.797e-5
1.166,   2.796e-5
1.168,   2.798e-5
1.170,   2.821e-5
1.172,   2.820e-5
1.174,   2.804e-5
1.176,   2.820e-5
1.178,   2.823e-5
1.180,   2.818e-5
1.182,   2.809e-5
1.184,   2.798e-5
1.186,   2.818e-5
1.188,   2.809e-5
1.190,   2.798e-5
1.192,   2.791e-5
1.194,   2.796e-5
1.196,   2.785e-5
1.198,   2.780e-5
1.200,   2.762e-5
1.202,   2.775e-5
1.204,   2.757e-5
1.206,   2.744e-5
1.208,   2.749e-5
1.210,   2.742e-5
1.212,   2.732e-5
1.214,   2.730e-5
1.216,   2.708e-5
1.218,   2.714e-5
1.220,   2.704e-5
1.222,   2.693e-5
1.224,   2.683e-5
1.226,   2.693e-5
1.228,   2.682e-5
1.230,   2.672e-5
1.232,   2.662e-5
1.234,   2.675e-5
1.236,   2.665e-5
1.238,   2.650e-5
1.240,   2.661e-5
1.242,   2.664e-5
1.244,   2.655e-5
1.246,   2.658e-5
1.248,   2.648e-5
1.250,   2.660e-5
1.252,   2.671e-5
1.254,   2.659e-5
1.256,   2.665e-5
1.258,   2.680e-5
1.260,   2.685e-5
1.262,   2.685e-5
1.264,   2.688e-5
1.266,   2.729e-5
1.268,   2.721e-5
1.270,   2.722e-5
1.272,   2.746e-5
1.274,   2.766e-5
1.276,   2.781e-5
1.278,   2.796e-5
1.280,   2.804e-5
1.282,   2.845e-5
1.284,   2.868e-5
1.286,   2.877e-5
1.288,   2.909e-5
1.290,   2.946e-5
1.292,   2.979e-5
1.294,   3.007e-5
1.296,   3.041e-5
1.298,   3.100e-5
1.300,   3.142e-5
1.302,   3.181e-5
1.304,   3.245e-5
1.306,   3.303e-5
1.308,   3.365e-5
1.310,   3.436e-5
1.312,   3.507e-5
1.314,   3.610e-5
1.316,   3.706e-5
1.318,   3.787e-5
1.320,   3.907e-5
1.322,   4.043e-5
1.324,   4.189e-5
1.326,   4.342e-5
1.328,   4.512e-5
1.330,   4.737e-5
1.332,   4.946e-5
1.334,   5.178e-5
1.336,   5.458e-5
1.338,   5.767e-5
1.340,   6.095e-5
1.342,   6.481e-5
1.344,   6.885e-5
1.346,   7.379e-5
1.348,   7.900e-5
1.350,   8.466e-5
1.352,   9.111e-5
1.354,   9.837e-5
1.356,   1.062e-4
1.358,   1.150e-4
1.360,   1.244e-4
1.362,   1.357e-4
1.364,   1.475e-4
1.366,   1.605e-4
1.368,   1.753e-4
1.370,   1.915e-4
1.372,   2.091e-4
1.374,   2.283e-4
1.376,   2.500e-4
1.378,   2.736e-4
1.380,   2.997e-4
1.382,   3.281e-4
1.384,   3.594e-4
1.386,   3.939e-4
1.388,   4.316e-4
1.390,   4.730e-4
1.392,   5.185e-4
1.394,   5.688e-4
1.396,   6.230e-4
1.398,   6.821e-4
1.400,   7.469e-4
1.402,   8.179e-4
1.404,   8.957e-4
1.406,   9.793e-4
1.408,   1.070e-3
1.410,   1.170e-3
1.412,   1.278e-3
1.414,   1.398e-3
1.416,   1.522e-3
1.418,   1.663e-3
1.420,   1.807e-3
1.422,   1.968e-3
1.424,   2.138e-3
1.426,   2.321e-3
1.428,   2.510e-3
1.430,   2.716e-3
1.432,   2.931e-3
1.434,   3.152e-3
1.436,   3.396e-3
1.438,   3.668e-3
1.440,   3.931e-3
1.442,   4.184e-3
1.444,   4.441e-3
1.446,   4.814e-3
1.448,   5.085e-3
1.450,   5.457e-3
1.452,   5.810e-3
1.454,   6.253e-3
1.456,   6.648e-3
1.458,   6.995e-3
1.460,   7.412e-3
1.462,   7.819e-3
1.464,   8.201e-3
1.466,   8.756e-3
1.468,   9.122e-3
1.470,   9.606e-3
1.472,   1.000e-2
1.474,   1.006e-2
1.476,   1.006e-2
1.478,   1.006e-2
1.480,   1.006e-2
1.482,   1.006e-2
1.484,   1.006e-2
1.486,   1.006e-2
1.488,   1.006e-2
1.490,   1.006e-2
1.492,   1.006e-2
1.494,   1.006e-2
1.496,   1.006e-2
1.498,   1.006e-2
1.500,   1.006e-2
1.502,   1.006e-2
1.504,   1.006e-2
1.506,   1.006e-2
1.508,   1.006e-2
1.510,   1.006e-2
1.512,   1.006e-2
1.514,   1.006e-2
1.516,   1.006e-2
1.518,   1.006e-2
1.520,   1.006e-2
1.522,   1.006e-2
1.524,   1.006e-2
1.526,   1.006e-2
1.528,   1.006e-2
1.530,   1.006e-2
1.532,   1.006e-2
1.534,   1.006e-2
1.536,   1.006e-2
1.538,   1.006e-2
1.539,   1.006e-2