File: Experimental Records and Raw Data/batch4/final400/B4_BEST_400_#7_High_Quality(#23)-214mV.txt
Mar. 26, 2023   18:10:57
Linear Sweep Voltammetry
File: d:\current work\al_oer\electrochemical test data\batch 4\400\B4_BEST_400_#7_High_Quality(#23)-214mV.txt
Data Source:  Experiment
Instrument Model:  CHI660E
Header:
Note:

Init E (V) = 1.056

Final E (V) = 1.555

Scan Rate (V/s) = 0.010
Sample Interval (V) = 0.001
Quiet Time (sec) = 2
Sensitivity (A/V) = 0.001
Comp R (ohm) = 5.0

Results:

Channel 1:
Ep = 1.342V
ip = 1.003e-2A
Ah = 6.612e-2C

Potential/V, Current/A
1.056,   3.206e-5
1.058,   3.334e-5
1.060,   3.068e-5
1.062,   2.855e-5
1.064,   2.697e-5
1.066,   2.561e-5
1.068,   2.450e-5
1.070,   2.354e-5
1.072,   2.277e-5
1.074,   2.219e-5
1.076,   2.167e-5
1.078,   2.112e-5
1.080,   2.072e-5
1.082,   2.044e-5
1.084,   2.014e-5
1.086,   1.984e-5
1.088,   1.961e-5
1.090,   1.954e-5
1.092,   1.931e-5
1.094,   1.919e-5
1.096,   1.913e-5
1.098,   1.909e-5
1.100,   1.905e-5
1.102,   1.902e-5
1.104,   1.897e-5
1.106,   1.903e-5
1.108,   1.905e-5
1.110,   1.902e-5
1.112,   1.913e-5
1.114,   1.929e-5
1.116,   1.929e-5
1.118,   1.937e-5
1.120,   1.948e-5
1.122,   1.967e-5
1.124,   1.972e-5
1.126,   1.983e-5
1.128,   2.007e-5
1.130,   2.018e-5
1.132,   2.028e-5
1.134,   2.039e-5
1.136,   2.052e-5
1.138,   2.076e-5
1.140,   2.089e-5
1.142,   2.100e-5
1.144,   2.110e-5
1.146,   2.136e-5
1.148,   2.141e-5
1.150,   2.154e-5
1.152,   2.162e-5
1.154,   2.189e-5
1.156,   2.200e-5
1.158,   2.201e-5
1.160,   2.217e-5
1.162,   2.237e-5
1.164,   2.238e-5
1.166,   2.252e-5
1.168,   2.252e-5
1.170,   2.270e-5
1.172,   2.274e-5
1.174,   2.270e-5
1.176,   2.277e-5
1.178,   2.292e-5
1.180,   2.291e-5
1.182,   2.288e-5
1.184,   2.289e-5
1.186,   2.307e-5
1.188,   2.303e-5
1.190,   2.293e-5
1.192,   2.298e-5
1.194,   2.304e-5
1.196,   2.296e-5
1.198,   2.292e-5
1.200,   2.282e-5
1.202,   2.295e-5
1.204,   2.288e-5
1.206,   2.277e-5
1.208,   2.273e-5
1.210,   2.281e-5
1.212,   2.273e-5
1.214,   2.260e-5
1.216,   2.252e-5
1.218,   2.268e-5
1.220,   2.255e-5
1.222,   2.240e-5
1.224,   2.242e-5
1.226,   2.241e-5
1.228,   2.236e-5
1.230,   2.230e-5
1.232,   2.218e-5
1.234,   2.224e-5
1.236,   2.216e-5
1.238,   2.203e-5
1.240,   2.204e-5
1.242,   2.207e-5
1.244,   2.201e-5
1.246,   2.192e-5
1.248,   2.188e-5
1.250,   2.200e-5
1.252,   2.194e-5
1.254,   2.182e-5
1.256,   2.193e-5
1.258,   2.199e-5
1.260,   2.191e-5
1.262,   2.190e-5
1.264,   2.191e-5
1.266,   2.200e-5
1.268,   2.209e-5
1.270,   2.199e-5
1.272,   2.209e-5
1.274,   2.221e-5
1.276,   2.224e-5
1.278,   2.227e-5
1.280,   2.233e-5
1.282,   2.262e-5
1.284,   2.260e-5
1.286,   2.264e-5
1.288,   2.279e-5
1.290,   2.296e-5
1.292,   2.305e-5
1.294,   2.324e-5
1.296,   2.331e-5
1.298,   2.360e-5
1.300,   2.374e-5
1.302,   2.390e-5
1.304,   2.409e-5
1.306,   2.446e-5
1.308,   2.463e-5
1.310,   2.485e-5
1.312,   2.511e-5
1.314,   2.560e-5
1.316,   2.590e-5
1.318,   2.618e-5
1.320,   2.674e-5
1.322,   2.713e-5
1.324,   2.760e-5
1.326,   2.813e-5
1.328,   2.868e-5
1.330,   2.942e-5
1.332,   3.008e-5
1.334,   3.078e-5
1.336,   3.167e-5
1.338,   3.271e-5
1.340,   3.369e-5
1.342,   3.485e-5
1.344,   3.620e-5
1.346,   3.774e-5
1.348,   3.918e-5
1.350,   4.081e-5
1.352,   4.289e-5
1.354,   4.519e-5
1.356,   4.767e-5
1.358,   5.033e-5
1.360,   5.323e-5
1.362,   5.677e-5
1.364,   6.040e-5
1.366,   6.440e-5
1.368,   6.894e-5
1.370,   7.423e-5
1.372,   7.992e-5
1.374,   8.603e-5
1.376,   9.280e-5
1.378,   1.006e-4
1.380,   1.089e-4
1.382,   1.180e-4
1.384,   1.282e-4
1.386,   1.396e-4
1.388,   1.517e-4
1.390,   1.654e-4
1.392,   1.801e-4
1.394,   1.967e-4
1.396,   2.147e-4
1.398,   2.342e-4
1.400,   2.559e-4
1.402,   2.800e-4
1.404,   3.063e-4
1.406,   3.347e-4
1.408,   3.662e-4
1.410,   4.015e-4
1.412,   4.393e-4
1.414,   4.810e-4
1.416,   5.266e-4
1.418,   5.772e-4
1.420,   6.322e-4
1.422,   6.927e-4
1.424,   7.588e-4
1.426,   8.316e-4
1.428,   9.117e-4
1.430,   9.976e-4
1.432,   1.093e-3
1.434,   1.198e-3
1.436,   1.312e-3
1.438,   1.435e-3
1.440,   1.568e-3
1.442,   1.714e-3
1.444,   1.875e-3
1.446,   2.048e-3
1.448,   2.238e-3
1.450,   2.436e-3
1.452,   2.641e-3
1.454,   2.865e-3
1.456,   3.102e-3
1.458,   3.360e-3
1.460,   3.610e-3
1.462,   3.878e-3
1.464,   4.168e-3
1.466,   4.447e-3
1.468,   4.741e-3
1.470,   5.069e-3
1.472,   5.347e-3
1.474,   5.654e-3
1.476,   6.043e-3
1.478,   6.399e-3
1.480,   6.736e-3
1.482,   7.069e-3
1.484,   7.508e-3
1.486,   7.901e-3
1.488,   8.312e-3
1.490,   8.707e-3
1.492,   9.087e-3
1.494,   9.537e-3
1.496,   9.998e-3
1.498,   1.006e-2
1.500,   1.006e-2
1.502,   1.006e-2
1.504,   1.006e-2
1.506,   1.006e-2
1.508,   1.006e-2
1.510,   1.006e-2
1.512,   1.006e-2
1.514,   1.006e-2
1.516,   1.006e-2
1.518,   1.006e-2
1.520,   1.006e-2
1.522,   1.006e-2
1.524,   1.006e-2
1.526,   1.006e-2
1.528,   1.006e-2
1.530,   1.006e-2
1.532,   1.006e-2
1.534,   1.006e-2
1.536,   1.006e-2
1.538,   1.006e-2
1.540,   1.006e-2
1.542,   1.006e-2
1.544,   1.006e-2
1.546,   1.006e-2
1.548,   1.006e-2
1.550,   1.006e-2
1.552,   1.006e-2
1.554,   1.006e-2
1.555,   1.006e-2