File: Experimental Records and Raw Data/batch4/final400/B4_BEST_400_#2_High_Quality(#18)-217mV.txt
Mar. 27, 2023   17:18:49
Linear Sweep Voltammetry
File: d:\current work\al_oer\electrochemical test data\batch 4\400\B4_BEST_400_#2_High_Quality(#18)-217mV.txt
Data Source:  Experiment
Instrument Model:  CHI660E
Header:
Note:

Init E (V) = 1.067

Final E (V) = 1.466

Scan Rate (V/s) = 0.010
Sample Interval (V) = 0.001
Quiet Time (sec) = 2
Sensitivity (A/V) = 0.001
Comp R (ohm) = 6.4

Results:

Channel 1:

Potential/V, Current/A
1.067,   4.213e-5
1.069,   4.174e-5
1.071,   3.792e-5
1.073,   3.589e-5
1.075,   3.259e-5
1.077,   3.081e-5
1.079,   2.886e-5
1.081,   2.743e-5
1.083,   2.744e-5
1.085,   2.557e-5
1.087,   2.467e-5
1.089,   2.394e-5
1.091,   2.288e-5
1.093,   2.233e-5
1.095,   2.177e-5
1.097,   2.158e-5
1.099,   2.087e-5
1.101,   2.055e-5
1.103,   2.018e-5
1.105,   2.054e-5
1.107,   1.960e-5
1.109,   1.939e-5
1.111,   1.916e-5
1.113,   1.905e-5
1.115,   1.884e-5
1.117,   1.872e-5
1.119,   1.852e-5
1.121,   1.837e-5
1.123,   1.831e-5
1.125,   1.835e-5
1.127,   1.888e-5
1.129,   1.808e-5
1.131,   1.802e-5
1.133,   1.801e-5
1.135,   1.802e-5
1.137,   1.788e-5
1.139,   1.773e-5
1.141,   1.791e-5
1.143,   1.794e-5
1.145,   1.795e-5
1.147,   1.803e-5
1.149,   1.903e-5
1.151,   1.796e-5
1.153,   1.789e-5
1.155,   1.799e-5
1.157,   1.799e-5
1.159,   1.796e-5
1.161,   1.830e-5
1.163,   1.796e-5
1.165,   1.829e-5
1.167,   1.809e-5
1.169,   1.805e-5
1.171,   1.807e-5
1.173,   1.843e-5
1.175,   1.819e-5
1.177,   1.816e-5
1.179,   1.821e-5
1.181,   1.825e-5
1.183,   1.858e-5
1.185,   1.821e-5
1.187,   1.842e-5
1.189,   1.830e-5
1.191,   1.865e-5
1.193,   1.865e-5
1.195,   1.843e-5
1.197,   1.858e-5
1.199,   1.841e-5
1.201,   1.835e-5
1.203,   1.836e-5
1.205,   1.848e-5
1.207,   1.841e-5
1.209,   1.846e-5
1.211,   1.854e-5
1.213,   1.852e-5
1.215,   1.888e-5
1.217,   1.837e-5
1.219,   1.849e-5
1.221,   1.848e-5
1.223,   1.837e-5
1.225,   1.904e-5
1.227,   1.837e-5
1.229,   1.841e-5
1.231,   1.902e-5
1.233,   1.826e-5
1.235,   1.827e-5
1.237,   1.834e-5
1.239,   1.823e-5
1.241,   1.827e-5
1.243,   1.822e-5
1.245,   1.836e-5
1.247,   1.827e-5
1.249,   1.824e-5
1.251,   1.820e-5
1.253,   1.824e-5
1.255,   1.828e-5
1.257,   1.838e-5
1.259,   1.815e-5
1.261,   1.828e-5
1.263,   1.834e-5
1.265,   1.857e-5
1.267,   1.825e-5
1.269,   1.848e-5
1.271,   1.842e-5
1.273,   1.843e-5
1.275,   1.838e-5
1.277,   1.867e-5
1.279,   1.846e-5
1.281,   1.844e-5
1.283,   1.851e-5
1.285,   1.870e-5
1.287,   1.871e-5
1.289,   1.871e-5
1.291,   1.871e-5
1.293,   1.894e-5
1.295,   1.895e-5
1.297,   1.903e-5
1.299,   1.914e-5
1.301,   1.959e-5
1.303,   1.954e-5
1.305,   1.962e-5
1.307,   1.970e-5
1.309,   2.003e-5
1.311,   2.004e-5
1.313,   2.034e-5
1.315,   2.046e-5
1.317,   2.073e-5
1.319,   2.097e-5
1.321,   2.117e-5
1.323,   2.154e-5
1.325,   2.198e-5
1.327,   2.230e-5
1.329,   2.293e-5
1.331,   2.329e-5
1.333,   2.386e-5
1.335,   2.446e-5
1.337,   2.523e-5
1.339,   2.583e-5
1.341,   2.668e-5
1.343,   2.766e-5
1.345,   2.863e-5
1.347,   2.977e-5
1.349,   3.121e-5
1.351,   3.272e-5
1.353,   3.447e-5
1.355,   3.639e-5
1.357,   3.843e-5
1.359,   4.084e-5
1.361,   4.397e-5
1.363,   4.717e-5
1.365,   5.002e-5
1.367,   5.408e-5
1.369,   5.831e-5
1.371,   6.271e-5
1.373,   6.844e-5
1.375,   7.421e-5
1.377,   8.113e-5
1.379,   8.846e-5
1.381,   9.668e-5
1.383,   1.063e-4
1.385,   1.163e-4
1.387,   1.279e-4
1.389,   1.404e-4
1.391,   1.547e-4
1.393,   1.706e-4
1.395,   1.873e-4
1.397,   2.060e-4
1.399,   2.274e-4
1.401,   2.499e-4
1.403,   2.750e-4
1.405,   3.031e-4
1.407,   3.342e-4
1.409,   3.672e-4
1.411,   4.041e-4
1.413,   4.441e-4
1.415,   4.873e-4
1.417,   5.364e-4
1.419,   5.878e-4
1.421,   6.450e-4
1.423,   7.067e-4
1.425,   7.730e-4
1.427,   8.448e-4
1.429,   9.230e-4
1.431,   1.006e-3
1.433,   1.096e-3
1.435,   1.190e-3
1.437,   1.289e-3
1.439,   1.399e-3
1.441,   1.513e-3
1.443,   1.647e-3
1.445,   1.775e-3
1.447,   1.911e-3
1.449,   2.054e-3
1.451,   2.199e-3
1.453,   2.360e-3
1.455,   2.546e-3
1.457,   2.719e-3
1.459,   2.903e-3
1.461,   3.172e-3
1.463,   3.426e-3
1.465,   3.818e-3
1.466,   3.883e-3