File: Experimental Records and Raw Data/batch4/final400/B4_VARIANCE_400_#6_Full(#14)-332mV.txt
Mar. 24, 2023   15:19:23
Linear Sweep Voltammetry
File: d:\current work\al_oer\electrochemical test data\batch 4\400\B4_VARIANCE_400_#6_Full(#14)-332mV.txt
Data Source:  Experiment
Instrument Model:  CHI660E
Header:
Note:

Init E (V) = 1.111

Final E (V) = 1.610

Scan Rate (V/s) = 0.010
Sample Interval (V) = 0.001
Quiet Time (sec) = 2
Sensitivity (A/V) = 0.001
Comp R (ohm) = 7.2

Results:

Channel 1:

Potential/V, Current/A
1.111,   9.416e-6
1.113,   9.395e-6
1.115,   8.581e-6
1.117,   7.974e-6
1.119,   7.527e-6
1.121,   7.137e-6
1.123,   6.754e-6
1.125,   6.490e-6
1.127,   6.227e-6
1.129,   6.025e-6
1.131,   5.852e-6
1.133,   5.700e-6
1.135,   5.558e-6
1.137,   5.434e-6
1.139,   5.328e-6
1.141,   5.233e-6
1.143,   5.136e-6
1.145,   5.094e-6
1.147,   5.000e-6
1.149,   4.969e-6
1.151,   4.913e-6
1.153,   4.854e-6
1.155,   4.790e-6
1.157,   4.799e-6
1.159,   4.746e-6
1.161,   4.745e-6
1.163,   4.694e-6
1.165,   4.660e-6
1.167,   4.672e-6
1.169,   4.654e-6
1.171,   4.638e-6
1.173,   4.608e-6
1.175,   4.621e-6
1.177,   4.632e-6
1.179,   4.623e-6
1.181,   4.609e-6
1.183,   4.620e-6
1.185,   4.604e-6
1.187,   4.618e-6
1.189,   4.606e-6
1.191,   4.604e-6
1.193,   4.634e-6
1.195,   4.639e-6
1.197,   4.642e-6
1.199,   4.644e-6
1.201,   4.658e-6
1.203,   4.694e-6
1.205,   4.687e-6
1.207,   4.687e-6
1.209,   4.704e-6
1.211,   4.714e-6
1.213,   4.712e-6
1.215,   4.707e-6
1.217,   4.748e-6
1.219,   4.754e-6
1.221,   4.746e-6
1.223,   4.744e-6
1.225,   4.786e-6
1.227,   4.792e-6
1.229,   4.786e-6
1.231,   4.809e-6
1.233,   4.829e-6
1.235,   4.849e-6
1.237,   4.819e-6
1.239,   4.838e-6
1.241,   4.849e-6
1.243,   4.861e-6
1.245,   4.839e-6
1.247,   4.893e-6
1.249,   4.901e-6
1.251,   4.891e-6
1.253,   4.873e-6
1.255,   4.891e-6
1.257,   4.915e-6
1.259,   4.906e-6
1.261,   4.895e-6
1.263,   4.897e-6
1.265,   4.888e-6
1.267,   4.935e-6
1.269,   4.914e-6
1.271,   4.934e-6
1.273,   4.906e-6
1.275,   4.923e-6
1.277,   4.943e-6
1.279,   4.944e-6
1.281,   4.941e-6
1.283,   4.941e-6
1.285,   4.944e-6
1.287,   4.960e-6
1.289,   4.966e-6
1.291,   4.948e-6
1.293,   4.928e-6
1.295,   4.959e-6
1.297,   4.992e-6
1.299,   4.983e-6
1.301,   4.985e-6
1.303,   4.977e-6
1.305,   5.018e-6
1.307,   5.029e-6
1.309,   5.045e-6
1.311,   5.091e-6
1.313,   5.072e-6
1.315,   5.061e-6
1.317,   5.100e-6
1.319,   5.136e-6
1.321,   5.177e-6
1.323,   5.195e-6
1.325,   5.159e-6
1.327,   5.185e-6
1.329,   5.258e-6
1.331,   5.272e-6
1.333,   5.303e-6
1.335,   5.323e-6
1.337,   5.371e-6
1.339,   5.398e-6
1.341,   5.420e-6
1.343,   5.442e-6
1.345,   5.486e-6
1.347,   5.532e-6
1.349,   5.612e-6
1.351,   5.612e-6
1.353,   5.686e-6
1.355,   5.706e-6
1.357,   5.729e-6
1.359,   5.792e-6
1.361,   5.857e-6
1.363,   5.906e-6
1.365,   5.964e-6
1.367,   5.997e-6
1.369,   6.076e-6
1.371,   6.101e-6
1.373,   6.158e-6
1.375,   6.255e-6
1.377,   6.296e-6
1.379,   6.372e-6
1.381,   6.450e-6
1.383,   6.502e-6
1.385,   6.618e-6
1.387,   6.679e-6
1.389,   6.754e-6
1.391,   6.866e-6
1.393,   7.016e-6
1.395,   7.103e-6
1.397,   7.190e-6
1.399,   7.329e-6
1.401,   7.486e-6
1.403,   7.640e-6
1.405,   7.792e-6
1.407,   7.976e-6
1.409,   8.195e-6
1.411,   8.423e-6
1.413,   8.666e-6
1.415,   8.903e-6
1.417,   9.242e-6
1.419,   9.539e-6
1.421,   9.915e-6
1.423,   1.028e-5
1.425,   1.074e-5
1.427,   1.118e-5
1.429,   1.172e-5
1.431,   1.233e-5
1.433,   1.304e-5
1.435,   1.376e-5
1.437,   1.451e-5
1.439,   1.545e-5
1.441,   1.648e-5
1.443,   1.755e-5
1.445,   1.872e-5
1.447,   2.013e-5
1.449,   2.168e-5
1.451,   2.339e-5
1.453,   2.527e-5
1.455,   2.736e-5
1.457,   2.971e-5
1.459,   3.232e-5
1.461,   3.523e-5
1.463,   3.834e-5
1.465,   4.198e-5
1.467,   4.593e-5
1.469,   5.037e-5
1.471,   5.526e-5
1.473,   6.077e-5
1.475,   6.683e-5
1.477,   7.355e-5
1.479,   8.107e-5
1.481,   8.936e-5
1.483,   9.837e-5
1.485,   1.084e-4
1.487,   1.195e-4
1.489,   1.317e-4
1.491,   1.452e-4
1.493,   1.601e-4
1.495,   1.763e-4
1.497,   1.940e-4
1.499,   2.133e-4
1.501,   2.347e-4
1.503,   2.580e-4
1.505,   2.832e-4
1.507,   3.106e-4
1.509,   3.403e-4
1.511,   3.720e-4
1.513,   4.060e-4
1.515,   4.423e-4
1.517,   4.810e-4
1.519,   5.217e-4
1.521,   5.645e-4
1.523,   6.102e-4
1.525,   6.584e-4
1.527,   7.072e-4
1.529,   7.589e-4
1.531,   8.130e-4
1.533,   8.700e-4
1.535,   9.267e-4
1.537,   9.868e-4
1.539,   1.048e-3
1.541,   1.111e-3
1.543,   1.178e-3
1.545,   1.246e-3
1.547,   1.315e-3
1.549,   1.385e-3
1.551,   1.459e-3
1.553,   1.537e-3
1.555,   1.621e-3
1.557,   1.702e-3
1.559,   1.789e-3
1.561,   1.884e-3
1.563,   1.979e-3
1.565,   2.078e-3
1.567,   2.191e-3
1.569,   2.300e-3
1.571,   2.413e-3
1.573,   2.544e-3
1.575,   2.662e-3
1.577,   2.798e-3
1.579,   2.951e-3
1.581,   3.104e-3
1.583,   3.252e-3
1.585,   3.410e-3
1.587,   3.553e-3
1.589,   3.721e-3
1.591,   3.901e-3
1.593,   4.097e-3
1.595,   4.250e-3
1.597,   4.463e-3
1.599,   4.635e-3
1.601,   4.765e-3
1.603,   4.925e-3
1.605,   5.124e-3
1.607,   5.252e-3
1.609,   5.486e-3
1.610,   5.570e-3