File: Experimental Records and Raw Data/batch4/final400/B4_VARIANCE_400_#3_High_Quality(#27)-346mV.txt
Mar. 28, 2023   17:43:48
Linear Sweep Voltammetry
File: d:\current work\al_oer\electrochemical test data\batch 4\400\B4_VARIANCE_400_#3_High_Quality(#27)-346mV.txt
Data Source:  Experiment
Instrument Model:  CHI660E
Header:
Note:

Init E (V) = 1.135

Final E (V) = 1.634

Scan Rate (V/s) = 0.010
Sample Interval (V) = 0.001
Quiet Time (sec) = 2
Sensitivity (A/V) = 0.001
Comp R (ohm) = 7.1

Results:

Channel 1:

Potential/V, Current/A
1.135,   -5.539e-6
1.137,   -3.479e-6
1.139,   -2.766e-6
1.141,   -2.167e-6
1.143,   -1.640e-6
1.145,   -1.280e-6
1.147,   -9.609e-7
1.149,   -6.731e-7
1.151,   -3.869e-7
1.153,   -1.659e-7
1.155,   8.021e-8
1.157,   2.406e-7
1.159,   4.482e-7
1.161,   6.031e-7
1.163,   7.761e-7
1.165,   9.649e-7
1.167,   1.118e-6
1.169,   1.267e-6
1.171,   1.397e-6
1.173,   1.551e-6
1.175,   1.662e-6
1.177,   1.742e-6
1.179,   1.928e-6
1.181,   2.040e-6
1.183,   2.096e-6
1.185,   2.251e-6
1.187,   2.317e-6
1.189,   2.402e-6
1.191,   2.517e-6
1.193,   2.582e-6
1.195,   2.690e-6
1.197,   2.781e-6
1.199,   2.855e-6
1.201,   2.957e-6
1.203,   3.020e-6
1.205,   3.105e-6
1.207,   3.208e-6
1.209,   3.280e-6
1.211,   3.353e-6
1.213,   3.461e-6
1.215,   3.515e-6
1.217,   3.614e-6
1.219,   3.690e-6
1.221,   3.769e-6
1.223,   3.816e-6
1.225,   3.908e-6
1.227,   3.988e-6
1.229,   4.028e-6
1.231,   4.102e-6
1.233,   4.206e-6
1.235,   4.260e-6
1.237,   4.315e-6
1.239,   4.382e-6
1.241,   4.466e-6
1.243,   4.496e-6
1.245,   4.565e-6
1.247,   4.576e-6
1.249,   4.656e-6
1.251,   4.710e-6
1.253,   4.753e-6
1.255,   4.789e-6
1.257,   4.847e-6
1.259,   4.882e-6
1.261,   4.927e-6
1.263,   4.982e-6
1.265,   5.021e-6
1.267,   5.028e-6
1.269,   5.060e-6
1.271,   5.095e-6
1.273,   5.151e-6
1.275,   5.155e-6
1.277,   5.206e-6
1.279,   5.206e-6
1.281,   5.262e-6
1.283,   5.257e-6
1.285,   5.269e-6
1.287,   5.282e-6
1.289,   5.344e-6
1.291,   5.383e-6
1.293,   5.384e-6
1.295,   5.418e-6
1.297,   5.439e-6
1.299,   5.456e-6
1.301,   5.436e-6
1.303,   5.490e-6
1.305,   5.540e-6
1.307,   5.539e-6
1.309,   5.556e-6
1.311,   5.578e-6
1.313,   5.621e-6
1.315,   5.608e-6
1.317,   5.607e-6
1.319,   5.626e-6
1.321,   5.670e-6
1.323,   5.641e-6
1.325,   5.677e-6
1.327,   5.703e-6
1.329,   5.751e-6
1.331,   5.789e-6
1.333,   5.769e-6
1.335,   5.821e-6
1.337,   5.860e-6
1.339,   5.865e-6
1.341,   5.853e-6
1.343,   5.876e-6
1.345,   5.918e-6
1.347,   5.997e-6
1.349,   5.972e-6
1.351,   6.003e-6
1.353,   6.066e-6
1.355,   6.085e-6
1.357,   6.113e-6
1.359,   6.128e-6
1.361,   6.219e-6
1.363,   6.183e-6
1.365,   6.249e-6
1.367,   6.280e-6
1.369,   6.344e-6
1.371,   6.358e-6
1.373,   6.450e-6
1.375,   6.447e-6
1.377,   6.543e-6
1.379,   6.572e-6
1.381,   6.585e-6
1.383,   6.660e-6
1.385,   6.765e-6
1.387,   6.798e-6
1.389,   6.849e-6
1.391,   6.860e-6
1.393,   6.997e-6
1.395,   7.074e-6
1.397,   7.124e-6
1.399,   7.231e-6
1.401,   7.363e-6
1.403,   7.494e-6
1.405,   7.587e-6
1.407,   7.757e-6
1.409,   7.888e-6
1.411,   8.058e-6
1.413,   8.190e-6
1.415,   8.360e-6
1.417,   8.581e-6
1.419,   8.772e-6
1.421,   8.993e-6
1.423,   9.159e-6
1.425,   9.489e-6
1.427,   9.805e-6
1.429,   1.010e-5
1.431,   1.045e-5
1.433,   1.080e-5
1.435,   1.122e-5
1.437,   1.167e-5
1.439,   1.218e-5
1.441,   1.275e-5
1.443,   1.332e-5
1.445,   1.399e-5
1.447,   1.476e-5
1.449,   1.556e-5
1.451,   1.643e-5
1.453,   1.738e-5
1.455,   1.845e-5
1.457,   1.968e-5
1.459,   2.100e-5
1.461,   2.243e-5
1.463,   2.401e-5
1.465,   2.583e-5
1.467,   2.769e-5
1.469,   2.983e-5
1.471,   3.210e-5
1.473,   3.469e-5
1.475,   3.746e-5
1.477,   4.039e-5
1.479,   4.377e-5
1.481,   4.746e-5
1.483,   5.151e-5
1.485,   5.586e-5
1.487,   6.067e-5
1.489,   6.615e-5
1.491,   7.189e-5
1.493,   7.838e-5
1.495,   8.540e-5
1.497,   9.322e-5
1.499,   1.017e-4
1.501,   1.110e-4
1.503,   1.212e-4
1.505,   1.325e-4
1.507,   1.447e-4
1.509,   1.583e-4
1.511,   1.729e-4
1.513,   1.889e-4
1.515,   2.063e-4
1.517,   2.254e-4
1.519,   2.464e-4
1.521,   2.689e-4
1.523,   2.937e-4
1.525,   3.207e-4
1.527,   3.497e-4
1.529,   3.812e-4
1.531,   4.154e-4
1.533,   4.521e-4
1.535,   4.917e-4
1.537,   5.339e-4
1.539,   5.778e-4
1.541,   6.238e-4
1.543,   6.758e-4
1.545,   7.294e-4
1.547,   7.863e-4
1.549,   8.461e-4
1.551,   9.087e-4
1.553,   9.742e-4
1.555,   1.042e-3
1.557,   1.112e-3
1.559,   1.186e-3
1.561,   1.263e-3
1.563,   1.342e-3
1.565,   1.424e-3
1.567,   1.508e-3
1.569,   1.595e-3
1.571,   1.684e-3
1.573,   1.775e-3
1.575,   1.868e-3
1.577,   1.956e-3
1.579,   2.061e-3
1.581,   2.167e-3
1.583,   2.273e-3
1.585,   2.381e-3
1.587,   2.488e-3
1.589,   2.597e-3
1.591,   2.701e-3
1.593,   2.824e-3
1.595,   2.947e-3
1.597,   3.064e-3
1.599,   3.180e-3
1.601,   3.304e-3
1.603,   3.395e-3
1.605,   3.533e-3
1.607,   3.664e-3
1.609,   3.802e-3
1.611,   3.948e-3
1.613,   4.098e-3
1.615,   4.266e-3
1.617,   4.412e-3
1.619,   4.559e-3
1.621,   4.673e-3
1.623,   4.843e-3
1.625,   4.982e-3
1.627,   5.129e-3
1.629,   5.271e-3
1.631,   5.486e-3
1.633,   5.596e-3
1.634,   5.640e-3