File: Experimental Records and Raw Data/batch4/final400/B4_VARIANCE_400_#5_High_Quality(#29)-273mV.txt
Mar. 24, 2023   18:41:00
Linear Sweep Voltammetry
File: d:\current work\al_oer\electrochemical test data\batch 4\400\B4_VARIANCE_400_#5_High_Quality(#29)-273mV.txt
Data Source:  Experiment
Instrument Model:  CHI660E
Header:
Note:

Init E (V) = 1.100

Final E (V) = 1.599

Scan Rate (V/s) = 0.010
Sample Interval (V) = 0.001
Quiet Time (sec) = 2
Sensitivity (A/V) = 0.001
Comp R (ohm) = 7.5

Results:

Channel 1:

Potential/V, Current/A
1.100,   1.937e-5
1.102,   1.970e-5
1.104,   1.827e-5
1.106,   1.712e-5
1.108,   1.617e-5
1.110,   1.541e-5
1.112,   1.476e-5
1.114,   1.421e-5
1.116,   1.376e-5
1.118,   1.337e-5
1.120,   1.306e-5
1.122,   1.270e-5
1.124,   1.243e-5
1.126,   1.220e-5
1.128,   1.203e-5
1.130,   1.181e-5
1.132,   1.164e-5
1.134,   1.153e-5
1.136,   1.136e-5
1.138,   1.121e-5
1.140,   1.111e-5
1.142,   1.105e-5
1.144,   1.093e-5
1.146,   1.089e-5
1.148,   1.079e-5
1.150,   1.079e-5
1.152,   1.075e-5
1.154,   1.068e-5
1.156,   1.064e-5
1.158,   1.066e-5
1.160,   1.063e-5
1.162,   1.058e-5
1.164,   1.056e-5
1.166,   1.061e-5
1.168,   1.060e-5
1.170,   1.061e-5
1.172,   1.063e-5
1.174,   1.065e-5
1.176,   1.070e-5
1.178,   1.065e-5
1.180,   1.072e-5
1.182,   1.077e-5
1.184,   1.078e-5
1.186,   1.081e-5
1.188,   1.080e-5
1.190,   1.087e-5
1.192,   1.091e-5
1.194,   1.090e-5
1.196,   1.095e-5
1.198,   1.104e-5
1.200,   1.107e-5
1.202,   1.106e-5
1.204,   1.111e-5
1.206,   1.118e-5
1.208,   1.117e-5
1.210,   1.124e-5
1.212,   1.125e-5
1.214,   1.129e-5
1.216,   1.132e-5
1.218,   1.132e-5
1.220,   1.138e-5
1.222,   1.145e-5
1.224,   1.143e-5
1.226,   1.139e-5
1.228,   1.138e-5
1.230,   1.148e-5
1.232,   1.147e-5
1.234,   1.150e-5
1.236,   1.148e-5
1.238,   1.154e-5
1.240,   1.150e-5
1.242,   1.157e-5
1.244,   1.150e-5
1.246,   1.153e-5
1.248,   1.151e-5
1.250,   1.147e-5
1.252,   1.149e-5
1.254,   1.152e-5
1.256,   1.150e-5
1.258,   1.147e-5
1.260,   1.143e-5
1.262,   1.150e-5
1.264,   1.145e-5
1.266,   1.138e-5
1.268,   1.146e-5
1.270,   1.144e-5
1.272,   1.138e-5
1.274,   1.135e-5
1.276,   1.131e-5
1.278,   1.136e-5
1.280,   1.133e-5
1.282,   1.124e-5
1.284,   1.127e-5
1.286,   1.126e-5
1.288,   1.124e-5
1.290,   1.123e-5
1.292,   1.118e-5
1.294,   1.124e-5
1.296,   1.123e-5
1.298,   1.120e-5
1.300,   1.121e-5
1.302,   1.120e-5
1.304,   1.119e-5
1.306,   1.119e-5
1.308,   1.116e-5
1.310,   1.124e-5
1.312,   1.122e-5
1.314,   1.120e-5
1.316,   1.124e-5
1.318,   1.127e-5
1.320,   1.127e-5
1.322,   1.127e-5
1.324,   1.134e-5
1.326,   1.143e-5
1.328,   1.146e-5
1.330,   1.146e-5
1.332,   1.150e-5
1.334,   1.157e-5
1.336,   1.164e-5
1.338,   1.176e-5
1.340,   1.178e-5
1.342,   1.190e-5
1.344,   1.197e-5
1.346,   1.202e-5
1.348,   1.222e-5
1.350,   1.231e-5
1.352,   1.244e-5
1.354,   1.253e-5
1.356,   1.269e-5
1.358,   1.293e-5
1.360,   1.309e-5
1.362,   1.327e-5
1.364,   1.353e-5
1.366,   1.379e-5
1.368,   1.408e-5
1.370,   1.435e-5
1.372,   1.467e-5
1.374,   1.515e-5
1.376,   1.554e-5
1.378,   1.598e-5
1.380,   1.649e-5
1.382,   1.710e-5
1.384,   1.777e-5
1.386,   1.839e-5
1.388,   1.922e-5
1.390,   2.021e-5
1.392,   2.119e-5
1.394,   2.226e-5
1.396,   2.353e-5
1.398,   2.494e-5
1.400,   2.790e-5
1.402,   2.906e-5
1.404,   3.101e-5
1.406,   3.335e-5
1.408,   3.586e-5
1.410,   3.888e-5
1.412,   4.225e-5
1.414,   4.595e-5
1.416,   4.951e-5
1.418,   5.400e-5
1.420,   5.883e-5
1.422,   6.368e-5
1.424,   6.696e-5
1.426,   7.396e-5
1.428,   8.006e-5
1.430,   8.765e-5
1.432,   9.606e-5
1.434,   1.040e-4
1.436,   1.134e-4
1.438,   1.240e-4
1.440,   1.349e-4
1.442,   1.472e-4
1.444,   1.611e-4
1.446,   1.762e-4
1.448,   1.928e-4
1.450,   2.106e-4
1.452,   2.300e-4
1.454,   2.522e-4
1.456,   2.752e-4
1.458,   3.006e-4
1.460,   3.289e-4
1.462,   3.590e-4
1.464,   3.925e-4
1.466,   4.285e-4
1.468,   4.675e-4
1.470,   5.096e-4
1.472,   5.552e-4
1.474,   6.040e-4
1.476,   6.558e-4
1.478,   7.133e-4
1.480,   7.748e-4
1.482,   8.394e-4
1.484,   9.088e-4
1.486,   9.854e-4
1.488,   1.064e-3
1.490,   1.151e-3
1.492,   1.240e-3
1.494,   1.336e-3
1.496,   1.441e-3
1.498,   1.550e-3
1.500,   1.667e-3
1.502,   1.803e-3
1.504,   1.943e-3
1.506,   2.088e-3
1.508,   2.253e-3
1.510,   2.441e-3
1.512,   2.663e-3
1.514,   2.921e-3
1.516,   3.149e-3
1.518,   3.410e-3
1.520,   3.755e-3
1.522,   4.111e-3
1.524,   4.504e-3
1.526,   4.938e-3
1.528,   5.432e-3
1.530,   5.842e-3
1.532,   6.474e-3
1.534,   6.851e-3
1.536,   7.401e-3
1.538,   8.072e-3
1.540,   8.470e-3
1.542,   8.973e-3
1.544,   9.939e-3
1.546,   1.006e-2
1.548,   1.006e-2
1.550,   1.006e-2
1.552,   1.006e-2
1.554,   1.006e-2
1.556,   1.006e-2
1.558,   1.006e-2
1.560,   1.006e-2
1.562,   1.006e-2
1.564,   1.006e-2
1.566,   1.006e-2
1.568,   1.006e-2
1.570,   1.006e-2
1.572,   1.006e-2
1.574,   1.006e-2
1.576,   1.006e-2
1.578,   1.006e-2
1.580,   1.006e-2
1.582,   1.006e-2
1.584,   1.006e-2
1.586,   1.006e-2
1.588,   1.006e-2
1.590,   1.006e-2
1.592,   1.006e-2
1.594,   1.006e-2
1.596,   1.006e-2
1.598,   1.006e-2
1.599,   1.006e-2