File: Experimental Records and Raw Data/batch4/final400/B4_VARIANCE_400_#3_Full(#11)-391mV.txt
Mar. 27, 2023   15:09:03
Linear Sweep Voltammetry
File: d:\current work\al_oer\electrochemical test data\batch 4\400\B4_VARIANCE_400_#3_Full(#11)-391mV.txt
Data Source:  Experiment
Instrument Model:  CHI660E
Header:
Note:

Init E (V) = 1.109

Final E (V) = 1.638

Scan Rate (V/s) = 0.010
Sample Interval (V) = 0.001
Quiet Time (sec) = 2
Sensitivity (A/V) = 0.001
Comp R (ohm) = 4.7

Results:

Channel 1:

Potential/V, Current/A
1.109,   2.232e-4
1.111,   1.996e-4
1.113,   1.799e-4
1.115,   1.637e-4
1.117,   1.502e-4
1.119,   1.386e-4
1.121,   1.287e-4
1.123,   1.203e-4
1.125,   1.132e-4
1.127,   1.068e-4
1.129,   1.012e-4
1.131,   9.627e-5
1.133,   9.207e-5
1.135,   8.802e-5
1.137,   8.455e-5
1.139,   8.114e-5
1.141,   7.818e-5
1.143,   7.512e-5
1.145,   7.249e-5
1.147,   7.046e-5
1.149,   6.855e-5
1.151,   6.647e-5
1.153,   6.464e-5
1.155,   6.324e-5
1.157,   6.188e-5
1.159,   6.064e-5
1.161,   5.933e-5
1.163,   5.814e-5
1.165,   5.712e-5
1.167,   5.602e-5
1.169,   5.515e-5
1.171,   5.418e-5
1.173,   5.341e-5
1.175,   5.259e-5
1.177,   5.199e-5
1.179,   5.126e-5
1.181,   5.050e-5
1.183,   5.000e-5
1.185,   4.947e-5
1.187,   4.893e-5
1.189,   4.852e-5
1.191,   4.805e-5
1.193,   4.771e-5
1.195,   4.756e-5
1.197,   4.705e-5
1.199,   4.697e-5
1.201,   4.667e-5
1.203,   4.633e-5
1.205,   4.595e-5
1.207,   4.577e-5
1.209,   4.552e-5
1.211,   4.532e-5
1.213,   4.519e-5
1.215,   4.496e-5
1.217,   4.458e-5
1.219,   4.447e-5
1.221,   4.430e-5
1.223,   4.407e-5
1.225,   4.390e-5
1.227,   4.377e-5
1.229,   4.373e-5
1.231,   4.386e-5
1.233,   4.380e-5
1.235,   4.347e-5
1.237,   4.341e-5
1.239,   4.352e-5
1.241,   4.367e-5
1.243,   4.368e-5
1.245,   4.360e-5
1.247,   4.358e-5
1.249,   4.359e-5
1.251,   4.354e-5
1.253,   4.354e-5
1.255,   4.359e-5
1.257,   4.365e-5
1.259,   4.374e-5
1.261,   4.377e-5
1.263,   4.384e-5
1.265,   4.393e-5
1.267,   4.388e-5
1.269,   4.388e-5
1.271,   4.403e-5
1.273,   4.409e-5
1.275,   4.412e-5
1.277,   4.414e-5
1.279,   4.422e-5
1.281,   4.426e-5
1.283,   4.429e-5
1.285,   4.435e-5
1.287,   4.446e-5
1.289,   4.472e-5
1.291,   4.477e-5
1.293,   4.485e-5
1.295,   4.505e-5
1.297,   4.529e-5
1.299,   4.527e-5
1.301,   4.547e-5
1.303,   4.554e-5
1.305,   4.569e-5
1.307,   4.598e-5
1.309,   4.624e-5
1.311,   4.636e-5
1.313,   4.650e-5
1.315,   4.671e-5
1.317,   4.689e-5
1.319,   4.722e-5
1.321,   4.737e-5
1.323,   4.763e-5
1.325,   4.792e-5
1.327,   4.816e-5
1.329,   4.846e-5
1.331,   4.867e-5
1.333,   4.892e-5
1.335,   4.920e-5
1.337,   4.948e-5
1.339,   4.970e-5
1.341,   4.996e-5
1.343,   5.026e-5
1.345,   5.062e-5
1.347,   5.102e-5
1.349,   5.146e-5
1.351,   5.195e-5
1.353,   5.236e-5
1.355,   5.281e-5
1.357,   5.328e-5
1.359,   5.367e-5
1.361,   5.426e-5
1.363,   5.476e-5
1.365,   5.529e-5
1.367,   5.593e-5
1.369,   5.653e-5
1.371,   5.708e-5
1.373,   5.782e-5
1.375,   5.848e-5
1.377,   5.933e-5
1.379,   6.012e-5
1.381,   6.117e-5
1.383,   6.210e-5
1.385,   6.305e-5
1.387,   6.404e-5
1.389,   6.514e-5
1.391,   6.635e-5
1.393,   6.778e-5
1.395,   6.921e-5
1.397,   7.097e-5
1.399,   7.283e-5
1.401,   7.458e-5
1.403,   7.688e-5
1.405,   7.902e-5
1.407,   8.121e-5
1.409,   8.398e-5
1.411,   8.696e-5
1.413,   9.017e-5
1.415,   9.367e-5
1.417,   9.744e-5
1.419,   1.015e-4
1.421,   1.059e-4
1.423,   1.107e-4
1.425,   1.161e-4
1.427,   1.215e-4
1.429,   1.276e-4
1.431,   1.338e-4
1.433,   1.405e-4
1.435,   1.474e-4
1.437,   1.555e-4
1.439,   1.636e-4
1.441,   1.720e-4
1.443,   1.811e-4
1.445,   1.911e-4
1.447,   2.014e-4
1.449,   2.117e-4
1.451,   2.233e-4
1.453,   2.358e-4
1.455,   2.489e-4
1.457,   2.626e-4
1.459,   2.767e-4
1.461,   2.909e-4
1.463,   3.064e-4
1.465,   3.219e-4
1.467,   3.382e-4
1.469,   3.551e-4
1.471,   3.733e-4
1.473,   3.923e-4
1.475,   4.114e-4
1.477,   4.310e-4
1.479,   4.512e-4
1.481,   4.708e-4
1.483,   4.930e-4
1.485,   5.150e-4
1.487,   5.375e-4
1.489,   5.614e-4
1.491,   5.855e-4
1.493,   6.095e-4
1.495,   6.342e-4
1.497,   6.590e-4
1.499,   6.845e-4
1.501,   7.096e-4
1.503,   7.355e-4
1.505,   7.620e-4
1.507,   7.883e-4
1.509,   8.156e-4
1.511,   8.426e-4
1.513,   8.703e-4
1.515,   8.975e-4
1.517,   9.244e-4
1.519,   9.524e-4
1.521,   9.789e-4
1.523,   1.006e-3
1.525,   1.033e-3
1.527,   1.059e-3
1.529,   1.086e-3
1.531,   1.113e-3
1.533,   1.139e-3
1.535,   1.165e-3
1.537,   1.190e-3
1.539,   1.215e-3
1.541,   1.241e-3
1.543,   1.264e-3
1.545,   1.288e-3
1.547,   1.314e-3
1.549,   1.337e-3
1.551,   1.360e-3
1.553,   1.383e-3
1.555,   1.405e-3
1.557,   1.429e-3
1.559,   1.451e-3
1.561,   1.475e-3
1.563,   1.498e-3
1.565,   1.519e-3
1.567,   1.543e-3
1.569,   1.564e-3
1.571,   1.584e-3
1.573,   1.605e-3
1.575,   1.625e-3
1.577,   1.644e-3
1.579,   1.664e-3
1.581,   1.683e-3
1.583,   1.701e-3
1.585,   1.719e-3
1.587,   1.738e-3
1.589,   1.754e-3
1.591,   1.769e-3
1.593,   1.785e-3
1.595,   1.800e-3
1.597,   1.816e-3
1.599,   1.831e-3
1.601,   1.847e-3
1.603,   1.864e-3
1.605,   1.874e-3
1.607,   1.888e-3
1.609,   1.898e-3
1.611,   1.908e-3
1.613,   1.920e-3
1.615,   1.931e-3
1.617,   1.941e-3
1.619,   1.949e-3
1.621,   1.957e-3
1.623,   1.967e-3
1.625,   1.976e-3
1.627,   1.985e-3
1.629,   1.989e-3
1.631,   1.996e-3
1.633,   2.001e-3
1.635,   2.009e-3
1.637,   2.018e-3
1.638,   2.020e-3