File: Experimental Records and Raw Data/batch4/final400/B4_VARIANCE_400_#1_Full(#9)-378mV.txt
Mar. 28, 2023   15:52:41
Linear Sweep Voltammetry
File: d:\current work\al_oer\electrochemical test data\batch 4\400\B4_VARIANCE_400_#1_Full(#9)-378mV.txt
Data Source:  Experiment
Instrument Model:  CHI660E
Header:
Note:

Init E (V) = 1.110

Final E (V) = 1.609

Scan Rate (V/s) = 0.010
Sample Interval (V) = 0.001
Quiet Time (sec) = 2
Sensitivity (A/V) = 0.001
Comp R (ohm) = 5.2

Results:

Channel 1:

Potential/V, Current/A
1.11,   1.610E-05
1.112,   1.456E-05
1.114,   1.287E-05
1.116,   1.157E-05
1.118,   1.055E-05
1.12,   9.669E-06
1.122,   9.016E-06
1.124,   8.384E-06
1.126,   7.926E-06
1.128,   7.533E-06
1.13,   7.231E-06
1.132,   6.877E-06
1.134,   6.561E-06
1.136,   6.339E-06
1.138,   6.191E-06
1.14,   5.951E-06
1.142,   5.798E-06
1.144,   5.661E-06
1.146,   5.466E-06
1.148,   5.427E-06
1.15,   5.303E-06
1.152,   5.181E-06
1.154,   5.090E-06
1.156,   5.072E-06
1.158,   4.972E-06
1.16,   4.932E-06
1.162,   4.837E-06
1.164,   4.770E-06
1.166,   4.723E-06
1.168,   4.687E-06
1.17,   4.622E-06
1.172,   4.622E-06
1.174,   4.535E-06
1.176,   4.583E-06
1.178,   4.527E-06
1.18,   4.513E-06
1.182,   4.447E-06
1.184,   4.456E-06
1.186,   4.427E-06
1.188,   4.421E-06
1.19,   4.381E-06
1.192,   4.359E-06
1.194,   4.385E-06
1.196,   4.340E-06
1.198,   4.368E-06
1.2,   4.341E-06
1.202,   4.335E-06
1.204,   4.365E-06
1.206,   4.325E-06
1.208,   4.329E-06
1.21,   4.310E-06
1.212,   4.314E-06
1.214,   4.260E-06
1.216,   4.347E-06
1.218,   4.299E-06
1.22,   4.353E-06
1.222,   4.276E-06
1.224,   4.300E-06
1.226,   4.302E-06
1.228,   4.314E-06
1.23,   4.310E-06
1.232,   4.329E-06
1.234,   4.356E-06
1.236,   4.319E-06
1.238,   4.337E-06
1.24,   4.319E-06
1.242,   4.316E-06
1.244,   4.365E-06
1.246,   4.367E-06
1.248,   4.374E-06
1.25,   4.370E-06
1.252,   4.326E-06
1.254,   4.346E-06
1.256,   4.448E-06
1.258,   4.432E-06
1.26,   4.387E-06
1.262,   4.415E-06
1.264,   4.376E-06
1.266,   4.411E-06
1.268,   4.447E-06
1.27,   4.415E-06
1.272,   4.489E-06
1.274,   4.448E-06
1.276,   4.418E-06
1.278,   4.447E-06
1.28,   4.480E-06
1.282,   4.448E-06
1.284,   4.474E-06
1.286,   4.506E-06
1.288,   4.527E-06
1.29,   4.461E-06
1.292,   4.495E-06
1.294,   4.524E-06
1.296,   4.500E-06
1.298,   4.538E-06
1.3,   4.577E-06
1.302,   4.589E-06
1.304,   4.551E-06
1.306,   4.587E-06
1.308,   4.590E-06
1.31,   4.604E-06
1.312,   4.652E-06
1.314,   4.693E-06
1.316,   4.643E-06
1.318,   4.654E-06
1.32,   4.705E-06
1.322,   4.693E-06
1.324,   4.784E-06
1.326,   4.716E-06
1.328,   4.772E-06
1.33,   4.834E-06
1.332,   4.841E-06
1.334,   4.855E-06
1.336,   4.861E-06
1.338,   4.904E-06
1.34,   4.926E-06
1.342,   4.915E-06
1.344,   5.001E-06
1.346,   5.013E-06
1.348,   5.068E-06
1.35,   5.117E-06
1.352,   5.114E-06
1.354,   5.155E-06
1.356,   5.184E-06
1.358,   5.259E-06
1.36,   5.299E-06
1.362,   5.342E-06
1.364,   5.342E-06
1.366,   5.379E-06
1.368,   5.466E-06
1.37,   5.505E-06
1.372,   5.534E-06
1.374,   5.599E-06
1.376,   5.672E-06
1.378,   5.688E-06
1.38,   5.724E-06
1.382,   5.800E-06
1.384,   5.895E-06
1.386,   5.940E-06
1.388,   5.963E-06
1.39,   6.045E-06
1.392,   6.180E-06
1.394,   6.260E-06
1.396,   6.363E-06
1.398,   6.428E-06
1.4,   6.576E-06
1.402,   6.683E-06
1.404,   6.786E-06
1.406,   6.878E-06
1.408,   6.969E-06
1.41,   7.108E-06
1.412,   7.289E-06
1.414,   7.450E-06
1.416,   7.627E-06
1.418,   7.831E-06
1.42,   8.045E-06
1.422,   8.266E-06
1.424,   8.533E-06
1.426,   8.764E-06
1.428,   9.080E-06
1.43,   9.418E-06
1.432,   9.746E-06
1.434,   1.012E-05
1.436,   1.057E-05
1.438,   1.106E-05
1.44,   1.159E-05
1.442,   1.205E-05
1.444,   1.263E-05
1.446,   1.330E-05
1.448,   1.402E-05
1.45,   1.490E-05
1.452,   1.570E-05
1.454,   1.666E-05
1.456,   1.782E-05
1.458,   1.895E-05
1.46,   2.029E-05
1.462,   2.170E-05
1.464,   2.337E-05
1.466,   2.513E-05
1.468,   2.709E-05
1.47,   2.925E-05
1.472,   3.171E-05
1.474,   3.437E-05
1.476,   3.739E-05
1.478,   4.065E-05
1.48,   4.432E-05
1.482,   4.830E-05
1.484,   5.273E-05
1.486,   5.747E-05
1.488,   6.282E-05
1.49,   6.875E-05
1.492,   7.535E-05
1.494,   8.257E-05
1.496,   9.037E-05
1.498,   9.901E-05
1.5,   1.087E-04
1.502,   1.193E-04
1.504,   1.306E-04
1.506,   1.429E-04
1.508,   1.561E-04
1.51,   1.706E-04
1.512,   1.863E-04
1.514,   2.029E-04
1.516,   2.209E-04
1.518,   2.401E-04
1.52,   2.605E-04
1.522,   2.818E-04
1.524,   3.035E-04
1.526,   3.256E-04
1.528,   3.479E-04
1.53,   3.712E-04
1.532,   3.952E-04
1.534,   4.192E-04
1.536,   4.435E-04
1.538,   4.689E-04
1.54,   4.951E-04
1.542,   5.213E-04
1.544,   5.474E-04
1.546,   5.735E-04
1.548,   6.001E-04
1.55,   6.265E-04
1.552,   6.552E-04
1.554,   6.845E-04
1.556,   7.139E-04
1.558,   7.429E-04
1.56,   7.739E-04
1.562,   8.065E-04
1.564,   8.399E-04
1.566,   8.852E-04
1.568,   9.238E-04
1.57,   9.619E-04
1.572,   9.999E-04
1.574,   1.038E-03
1.576,   1.077E-03
1.578,   1.118E-03
1.58,   1.161E-03
1.582,   1.208E-03
1.584,   1.252E-03
1.586,   1.300E-03
1.588,   1.346E-03
1.59,   1.398E-03
1.592,   1.449E-03
1.594,   1.504E-03
1.596,   1.563E-03
1.598,   1.625E-03
1.6,   1.693E-03
1.602,   1.756E-03
1.604,   1.820E-03
1.606,   1.874E-03
1.608,   1.937E-03
1.609,   1.968E-03