File: Experimental Records and Raw Data/batch4/final400/B4_VARIANCE_400_#5_Full(#13)-397mV.txt
Mar. 26, 2023   16:28:08
Linear Sweep Voltammetry
File: d:\current work\al_oer\electrochemical test data\batch 4\400\B4_VARIANCE_400_#5_Full(#13)-397mV.txt
Data Source:  Experiment
Instrument Model:  CHI660E
Header:
Note:

Init E (V) = 1.052

Final E (V) = 1.651

Scan Rate (V/s) = 0.010
Sample Interval (V) = 0.001
Quiet Time (sec) = 2
Sensitivity (A/V) = 0.001
Comp R (ohm) = 5.2

Results:

Channel 1:

Potential/V, Current/A
1.052,   7.204e-6
1.054,   6.763e-6
1.056,   6.136e-6
1.058,   5.654e-6
1.060,   5.241e-6
1.062,   4.864e-6
1.064,   4.600e-6
1.066,   4.342e-6
1.068,   4.106e-6
1.070,   3.919e-6
1.072,   3.774e-6
1.074,   3.622e-6
1.076,   3.483e-6
1.078,   3.356e-6
1.080,   3.236e-6
1.082,   3.138e-6
1.084,   3.076e-6
1.086,   2.989e-6
1.088,   2.919e-6
1.090,   2.875e-6
1.092,   2.814e-6
1.094,   2.734e-6
1.096,   2.719e-6
1.098,   2.662e-6
1.100,   2.617e-6
1.102,   2.593e-6
1.104,   2.562e-6
1.106,   2.528e-6
1.108,   2.526e-6
1.110,   2.507e-6
1.112,   2.465e-6
1.114,   2.466e-6
1.116,   2.436e-6
1.118,   2.425e-6
1.120,   2.395e-6
1.122,   2.405e-6
1.124,   2.405e-6
1.126,   2.395e-6
1.128,   2.368e-6
1.130,   2.349e-6
1.132,   2.346e-6
1.134,   2.397e-6
1.136,   2.374e-6
1.138,   2.329e-6
1.140,   2.346e-6
1.142,   2.369e-6
1.144,   2.344e-6
1.146,   2.320e-6
1.148,   2.343e-6
1.150,   2.357e-6
1.152,   2.367e-6
1.154,   2.369e-6
1.156,   2.351e-6
1.158,   2.375e-6
1.160,   2.371e-6
1.162,   2.404e-6
1.164,   2.383e-6
1.166,   2.368e-6
1.168,   2.383e-6
1.170,   2.408e-6
1.172,   2.376e-6
1.174,   2.399e-6
1.176,   2.427e-6
1.178,   2.437e-6
1.180,   2.431e-6
1.182,   2.435e-6
1.184,   2.438e-6
1.186,   2.445e-6
1.188,   2.439e-6
1.190,   2.447e-6
1.192,   2.483e-6
1.194,   2.441e-6
1.196,   2.451e-6
1.198,   2.463e-6
1.200,   2.495e-6
1.202,   2.485e-6
1.204,   2.471e-6
1.206,   2.509e-6
1.208,   2.508e-6
1.210,   2.526e-6
1.212,   2.514e-6
1.214,   2.551e-6
1.216,   2.557e-6
1.218,   2.541e-6
1.220,   2.553e-6
1.222,   2.561e-6
1.224,   2.578e-6
1.226,   2.575e-6
1.228,   2.571e-6
1.230,   2.637e-6
1.232,   2.625e-6
1.234,   2.639e-6
1.236,   2.644e-6
1.238,   2.639e-6
1.240,   2.660e-6
1.242,   2.650e-6
1.244,   2.667e-6
1.246,   2.691e-6
1.248,   2.721e-6
1.250,   2.739e-6
1.252,   2.738e-6
1.254,   2.739e-6
1.256,   2.770e-6
1.258,   2.776e-6
1.260,   2.764e-6
1.262,   2.807e-6
1.264,   2.800e-6
1.266,   2.853e-6
1.268,   2.844e-6
1.270,   2.875e-6
1.272,   2.922e-6
1.274,   2.909e-6
1.276,   2.933e-6
1.278,   2.972e-6
1.280,   2.949e-6
1.282,   3.008e-6
1.284,   3.025e-6
1.286,   3.043e-6
1.288,   3.081e-6
1.290,   3.096e-6
1.292,   3.127e-6
1.294,   3.158e-6
1.296,   3.180e-6
1.298,   3.202e-6
1.300,   3.243e-6
1.302,   3.257e-6
1.304,   3.302e-6
1.306,   3.317e-6
1.308,   3.366e-6
1.310,   3.388e-6
1.312,   3.434e-6
1.314,   3.470e-6
1.316,   3.524e-6
1.318,   3.539e-6
1.320,   3.577e-6
1.322,   3.612e-6
1.324,   3.643e-6
1.326,   3.728e-6
1.328,   3.775e-6
1.330,   3.817e-6
1.332,   3.869e-6
1.334,   3.932e-6
1.336,   3.970e-6
1.338,   4.059e-6
1.340,   4.122e-6
1.342,   4.195e-6
1.344,   4.271e-6
1.346,   4.372e-6
1.348,   4.439e-6
1.350,   4.544e-6
1.352,   4.628e-6
1.354,   4.764e-6
1.356,   4.859e-6
1.358,   4.979e-6
1.360,   5.161e-6
1.362,   5.247e-6
1.364,   5.436e-6
1.366,   5.634e-6
1.368,   5.828e-6
1.370,   6.012e-6
1.372,   6.260e-6
1.374,   6.530e-6
1.376,   6.812e-6
1.378,   7.124e-6
1.380,   7.444e-6
1.382,   7.848e-6
1.384,   8.226e-6
1.386,   8.692e-6
1.388,   9.198e-6
1.390,   9.741e-6
1.392,   1.039e-5
1.394,   1.104e-5
1.396,   1.178e-5
1.398,   1.263e-5
1.400,   1.353e-5
1.402,   1.450e-5
1.404,   1.563e-5
1.406,   1.683e-5
1.408,   1.814e-5
1.410,   1.961e-5
1.412,   2.132e-5
1.414,   2.314e-5
1.416,   2.512e-5
1.418,   2.733e-5
1.420,   2.969e-5
1.422,   3.238e-5
1.424,   3.526e-5
1.426,   3.831e-5
1.428,   4.176e-5
1.430,   4.553e-5
1.432,   4.965e-5
1.434,   5.416e-5
1.436,   5.892e-5
1.438,   6.425e-5
1.440,   6.995e-5
1.442,   7.612e-5
1.444,   8.285e-5
1.446,   9.001e-5
1.448,   9.762e-5
1.450,   1.057e-4
1.452,   1.145e-4
1.454,   1.237e-4
1.456,   1.335e-4
1.458,   1.439e-4
1.460,   1.548e-4
1.462,   1.662e-4
1.464,   1.780e-4
1.466,   1.902e-4
1.468,   2.025e-4
1.470,   2.154e-4
1.472,   2.285e-4
1.474,   2.420e-4
1.476,   2.558e-4
1.478,   2.700e-4
1.480,   2.844e-4
1.482,   2.991e-4
1.484,   3.142e-4
1.486,   3.295e-4
1.488,   3.450e-4
1.490,   3.606e-4
1.492,   3.768e-4
1.494,   3.933e-4
1.496,   4.103e-4
1.498,   4.283e-4
1.500,   4.467e-4
1.502,   4.652e-4
1.504,   4.852e-4
1.506,   5.060e-4
1.508,   5.289e-4
1.510,   5.510e-4
1.512,   5.736e-4
1.514,   5.971e-4
1.516,   6.211e-4
1.518,   6.459e-4
1.520,   6.714e-4
1.522,   6.975e-4
1.524,   7.240e-4
1.526,   7.520e-4
1.528,   7.809e-4
1.530,   8.104e-4
1.532,   8.403e-4
1.534,   8.718e-4
1.536,   9.016e-4
1.538,   9.328e-4
1.540,   9.626e-4
1.542,   9.951e-4
1.544,   1.027e-3
1.546,   1.059e-3
1.548,   1.091e-3
1.550,   1.123e-3
1.552,   1.155e-3
1.554,   1.189e-3
1.556,   1.223e-3
1.558,   1.252e-3
1.560,   1.282e-3
1.562,   1.311e-3
1.564,   1.341e-3
1.566,   1.373e-3
1.568,   1.402e-3
1.570,   1.430e-3
1.572,   1.458e-3
1.574,   1.482e-3
1.576,   1.510e-3
1.578,   1.537e-3
1.580,   1.562e-3
1.582,   1.586e-3
1.584,   1.603e-3
1.586,   1.625e-3
1.588,   1.647e-3
1.590,   1.671e-3
1.592,   1.688e-3
1.594,   1.706e-3
1.596,   1.727e-3
1.598,   1.741e-3
1.600,   1.762e-3
1.602,   1.792e-3
1.604,   1.822e-3
1.606,   1.839e-3
1.608,   1.852e-3
1.610,   1.855e-3
1.612,   1.871e-3
1.614,   1.885e-3
1.616,   1.901e-3
1.618,   1.917e-3
1.620,   1.928e-3
1.622,   1.940e-3
1.624,   1.945e-3
1.626,   1.950e-3
1.628,   1.961e-3
1.630,   1.971e-3
1.632,   1.989e-3
1.634,   1.995e-3
1.636,   2.008e-3
1.638,   2.019e-3
1.640,   2.025e-3
1.642,   2.028e-3
1.644,   2.036e-3
1.646,   2.041e-3
1.648,   2.040e-3
1.650,   2.048e-3
1.651,   2.051e-3