File: Experimental Records and Raw Data/batch4/final400/B4_VARIANCE_400_#4_Full(#12)-402mV.txt
Mar. 26, 2023   16:00:46
Linear Sweep Voltammetry
File: d:\current work\al_oer\electrochemical test data\batch 4\400\B4_VARIANCE_400_#4_Full(#12)-402mV.txt
Data Source:  Experiment
Instrument Model:  CHI660E
Header:
Note:

Init E (V) = 1.070

Final E (V) = 1.669

Scan Rate (V/s) = 0.010
Sample Interval (V) = 0.001
Quiet Time (sec) = 2
Sensitivity (A/V) = 0.001
Comp R (ohm) = 5.0

Results:

Channel 1:

Potential/V, Current/A
1.070,   -3.318e-7
1.072,   3.853e-7
1.074,   5.937e-7
1.076,   7.360e-7
1.078,   8.343e-7
1.080,   9.295e-7
1.082,   9.892e-7
1.084,   1.056e-6
1.086,   1.122e-6
1.088,   1.179e-6
1.090,   1.225e-6
1.092,   1.251e-6
1.094,   1.293e-6
1.096,   1.340e-6
1.098,   1.346e-6
1.100,   1.390e-6
1.102,   1.410e-6
1.104,   1.437e-6
1.106,   1.489e-6
1.108,   1.518e-6
1.110,   1.515e-6
1.112,   1.539e-6
1.114,   1.559e-6
1.116,   1.571e-6
1.118,   1.564e-6
1.120,   1.603e-6
1.122,   1.627e-6
1.124,   1.629e-6
1.126,   1.654e-6
1.128,   1.678e-6
1.130,   1.669e-6
1.132,   1.729e-6
1.134,   1.721e-6
1.136,   1.725e-6
1.138,   1.746e-6
1.140,   1.765e-6
1.142,   1.777e-6
1.144,   1.802e-6
1.146,   1.796e-6
1.148,   1.817e-6
1.150,   1.847e-6
1.152,   1.838e-6
1.154,   1.875e-6
1.156,   1.879e-6
1.158,   1.894e-6
1.160,   1.912e-6
1.162,   1.917e-6
1.164,   1.931e-6
1.166,   1.942e-6
1.168,   1.974e-6
1.170,   1.960e-6
1.172,   1.978e-6
1.174,   2.010e-6
1.176,   2.004e-6
1.178,   2.033e-6
1.180,   2.028e-6
1.182,   2.030e-6
1.184,   2.057e-6
1.186,   2.092e-6
1.188,   2.079e-6
1.190,   2.100e-6
1.192,   2.109e-6
1.194,   2.126e-6
1.196,   2.153e-6
1.198,   2.161e-6
1.200,   2.158e-6
1.202,   2.181e-6
1.204,   2.183e-6
1.206,   2.192e-6
1.208,   2.201e-6
1.210,   2.236e-6
1.212,   2.238e-6
1.214,   2.236e-6
1.216,   2.259e-6
1.218,   2.263e-6
1.220,   2.283e-6
1.222,   2.280e-6
1.224,   2.296e-6
1.226,   2.297e-6
1.228,   2.312e-6
1.230,   2.312e-6
1.232,   2.335e-6
1.234,   2.344e-6
1.236,   2.350e-6
1.238,   2.365e-6
1.240,   2.393e-6
1.242,   2.388e-6
1.244,   2.402e-6
1.246,   2.414e-6
1.248,   2.433e-6
1.250,   2.454e-6
1.252,   2.451e-6
1.254,   2.449e-6
1.256,   2.472e-6
1.258,   2.503e-6
1.260,   2.501e-6
1.262,   2.513e-6
1.264,   2.559e-6
1.266,   2.547e-6
1.268,   2.585e-6
1.270,   2.578e-6
1.272,   2.593e-6
1.274,   2.615e-6
1.276,   2.637e-6
1.278,   2.664e-6
1.280,   2.705e-6
1.282,   2.691e-6
1.284,   2.703e-6
1.286,   2.722e-6
1.288,   2.758e-6
1.290,   2.774e-6
1.292,   2.817e-6
1.294,   2.808e-6
1.296,   2.865e-6
1.298,   2.881e-6
1.300,   2.907e-6
1.302,   2.940e-6
1.304,   2.953e-6
1.306,   2.975e-6
1.308,   3.014e-6
1.310,   3.051e-6
1.312,   3.081e-6
1.314,   3.098e-6
1.316,   3.128e-6
1.318,   3.166e-6
1.320,   3.213e-6
1.322,   3.247e-6
1.324,   3.275e-6
1.326,   3.311e-6
1.328,   3.335e-6
1.330,   3.399e-6
1.332,   3.416e-6
1.334,   3.464e-6
1.336,   3.521e-6
1.338,   3.550e-6
1.340,   3.595e-6
1.342,   3.642e-6
1.344,   3.671e-6
1.346,   3.711e-6
1.348,   3.794e-6
1.350,   3.822e-6
1.352,   3.892e-6
1.354,   3.913e-6
1.356,   4.003e-6
1.358,   4.060e-6
1.360,   4.158e-6
1.362,   4.233e-6
1.364,   4.280e-6
1.366,   4.365e-6
1.368,   4.470e-6
1.370,   4.549e-6
1.372,   4.660e-6
1.374,   4.755e-6
1.376,   4.881e-6
1.378,   4.991e-6
1.380,   5.118e-6
1.382,   5.259e-6
1.384,   5.410e-6
1.386,   5.586e-6
1.388,   5.780e-6
1.390,   5.983e-6
1.392,   6.224e-6
1.394,   6.419e-6
1.396,   6.697e-6
1.398,   6.978e-6
1.400,   7.329e-6
1.402,   7.624e-6
1.404,   7.982e-6
1.406,   8.342e-6
1.408,   8.791e-6
1.410,   9.262e-6
1.412,   9.785e-6
1.414,   1.035e-5
1.416,   1.095e-5
1.418,   1.164e-5
1.420,   1.236e-5
1.422,   1.319e-5
1.424,   1.408e-5
1.426,   1.502e-5
1.428,   1.608e-5
1.430,   1.718e-5
1.432,   1.844e-5
1.434,   1.978e-5
1.436,   2.125e-5
1.438,   2.286e-5
1.440,   2.464e-5
1.442,   2.652e-5
1.444,   2.849e-5
1.446,   3.069e-5
1.448,   3.304e-5
1.450,   3.562e-5
1.452,   3.819e-5
1.454,   4.109e-5
1.456,   4.425e-5
1.458,   4.759e-5
1.460,   5.114e-5
1.462,   5.494e-5
1.464,   5.900e-5
1.466,   6.326e-5
1.468,   6.772e-5
1.470,   7.246e-5
1.472,   7.756e-5
1.474,   8.279e-5
1.476,   8.852e-5
1.478,   9.421e-5
1.480,   1.002e-4
1.482,   1.064e-4
1.484,   1.129e-4
1.486,   1.190e-4
1.488,   1.261e-4
1.490,   1.334e-4
1.492,   1.410e-4
1.494,   1.482e-4
1.496,   1.566e-4
1.498,   1.645e-4
1.500,   1.733e-4
1.502,   1.824e-4
1.504,   1.919e-4
1.506,   2.012e-4
1.508,   2.113e-4
1.510,   2.229e-4
1.512,   2.345e-4
1.514,   2.476e-4
1.516,   2.597e-4
1.518,   2.729e-4
1.520,   2.864e-4
1.522,   3.005e-4
1.524,   3.162e-4
1.526,   3.325e-4
1.528,   3.505e-4
1.530,   3.681e-4
1.532,   3.869e-4
1.534,   4.052e-4
1.536,   4.269e-4
1.538,   4.485e-4
1.540,   4.709e-4
1.542,   4.959e-4
1.544,   5.192e-4
1.546,   5.450e-4
1.548,   5.709e-4
1.550,   6.002e-4
1.552,   6.273e-4
1.554,   6.569e-4
1.556,   6.885e-4
1.558,   7.193e-4
1.560,   7.511e-4
1.562,   7.837e-4
1.564,   8.189e-4
1.566,   8.566e-4
1.568,   8.898e-4
1.570,   9.249e-4
1.572,   9.634e-4
1.574,   1.002e-3
1.576,   1.038e-3
1.578,   1.079e-3
1.580,   1.117e-3
1.582,   1.153e-3
1.584,   1.191e-3
1.586,   1.231e-3
1.588,   1.268e-3
1.590,   1.305e-3
1.592,   1.341e-3
1.594,   1.375e-3
1.596,   1.414e-3
1.598,   1.453e-3
1.600,   1.496e-3
1.602,   1.532e-3
1.604,   1.565e-3
1.606,   1.599e-3
1.608,   1.630e-3
1.610,   1.658e-3
1.612,   1.682e-3
1.614,   1.712e-3
1.616,   1.740e-3
1.618,   1.768e-3
1.620,   1.794e-3
1.622,   1.821e-3
1.624,   1.842e-3
1.626,   1.859e-3
1.628,   1.882e-3
1.630,   1.914e-3
1.632,   1.951e-3
1.634,   1.970e-3
1.636,   1.998e-3
1.638,   2.022e-3
1.640,   2.032e-3
1.642,   2.045e-3
1.644,   2.060e-3
1.646,   2.068e-3
1.648,   2.077e-3
1.650,   2.101e-3
1.652,   2.115e-3
1.654,   2.122e-3
1.656,   2.123e-3
1.658,   2.133e-3
1.660,   2.134e-3
1.662,   2.147e-3
1.664,   2.160e-3
1.666,   2.174e-3
1.668,   2.192e-3
1.669,   2.205e-3