File: Experimental Records and Raw Data/batch2/final500/B2_BEST_500#4_Full-241mV.txt
Jan. 18, 2023   15:50:08
Linear Sweep Voltammetry
File: d:\current work\al_oer\electrochemical test data\batch 2\500\B2_BEST_500#4_Full-241mV.txt
Data Source:  Experiment
Instrument Model:  CHI660E
Header:
Note:

Init E (V) = 1.099

Final E (V) = 1.532

Scan Rate (V/s) = 0.010
Sample Interval (V) = 0.001
Quiet Time (sec) = 2
Sensitivity (A/V) = 0.001
Comp R (ohm) = 5.0

Results:

Channel 1:

Potential/V, Current/A
1.099,   1.355e-4
1.101,   1.319e-4
1.103,   1.189e-4
1.105,   1.087e-4
1.107,   1.007e-4
1.109,   9.440e-5
1.111,   8.891e-5
1.113,   8.480e-5
1.115,   8.119e-5
1.117,   7.837e-5
1.119,   7.583e-5
1.121,   7.384e-5
1.123,   7.185e-5
1.125,   7.036e-5
1.127,   6.958e-5
1.129,   6.850e-5
1.131,   6.671e-5
1.133,   6.618e-5
1.135,   6.591e-5
1.137,   6.434e-5
1.139,   6.409e-5
1.141,   6.347e-5
1.143,   6.304e-5
1.145,   6.301e-5
1.147,   6.269e-5
1.149,   6.224e-5
1.151,   6.195e-5
1.153,   6.167e-5
1.155,   6.143e-5
1.157,   6.149e-5
1.159,   6.167e-5
1.161,   6.142e-5
1.163,   6.140e-5
1.165,   6.190e-5
1.167,   6.186e-5
1.169,   6.177e-5
1.171,   6.223e-5
1.173,   6.251e-5
1.175,   6.216e-5
1.177,   6.244e-5
1.179,   6.251e-5
1.181,   6.278e-5
1.183,   6.310e-5
1.185,   6.335e-5
1.187,   6.424e-5
1.189,   6.440e-5
1.191,   6.464e-5
1.193,   6.481e-5
1.195,   6.462e-5
1.197,   6.541e-5
1.199,   6.542e-5
1.201,   6.555e-5
1.203,   6.598e-5
1.205,   6.638e-5
1.207,   6.660e-5
1.209,   6.691e-5
1.211,   6.718e-5
1.213,   6.754e-5
1.215,   6.809e-5
1.217,   6.814e-5
1.219,   6.832e-5
1.221,   6.896e-5
1.223,   6.945e-5
1.225,   6.930e-5
1.227,   6.981e-5
1.229,   7.037e-5
1.231,   7.041e-5
1.233,   7.068e-5
1.235,   7.108e-5
1.237,   7.116e-5
1.239,   7.151e-5
1.241,   7.167e-5
1.243,   7.154e-5
1.245,   7.206e-5
1.247,   7.256e-5
1.249,   7.243e-5
1.251,   7.237e-5
1.253,   7.277e-5
1.255,   7.282e-5
1.257,   7.259e-5
1.259,   7.274e-5
1.261,   7.319e-5
1.263,   7.305e-5
1.265,   7.308e-5
1.267,   7.316e-5
1.269,   7.336e-5
1.271,   7.337e-5
1.273,   7.353e-5
1.275,   7.333e-5
1.277,   7.351e-5
1.279,   7.370e-5
1.281,   7.342e-5
1.283,   7.329e-5
1.285,   7.374e-5
1.287,   7.371e-5
1.289,   7.331e-5
1.291,   7.345e-5
1.293,   7.377e-5
1.295,   7.342e-5
1.297,   7.360e-5
1.299,   7.365e-5
1.301,   7.372e-5
1.303,   7.375e-5
1.305,   7.383e-5
1.307,   7.356e-5
1.309,   7.392e-5
1.311,   7.420e-5
1.313,   7.392e-5
1.315,   7.398e-5
1.317,   7.444e-5
1.319,   7.438e-5
1.321,   7.430e-5
1.323,   7.457e-5
1.325,   7.491e-5
1.327,   7.473e-5
1.329,   7.501e-5
1.331,   7.513e-5
1.333,   7.526e-5
1.335,   7.567e-5
1.337,   7.581e-5
1.339,   7.593e-5
1.341,   7.648e-5
1.343,   7.717e-5
1.345,   7.696e-5
1.347,   7.724e-5
1.349,   7.788e-5
1.351,   7.805e-5
1.353,   7.822e-5
1.355,   7.892e-5
1.357,   7.940e-5
1.359,   7.983e-5
1.361,   8.041e-5
1.363,   8.105e-5
1.365,   8.191e-5
1.367,   8.276e-5
1.369,   8.354e-5
1.371,   8.423e-5
1.373,   8.555e-5
1.375,   8.688e-5
1.377,   8.782e-5
1.379,   8.933e-5
1.381,   9.135e-5
1.383,   9.291e-5
1.385,   9.493e-5
1.387,   9.723e-5
1.389,   9.997e-5
1.391,   1.028e-4
1.393,   1.062e-4
1.395,   1.095e-4
1.397,   1.140e-4
1.399,   1.187e-4
1.401,   1.239e-4
1.403,   1.295e-4
1.405,   1.365e-4
1.407,   1.441e-4
1.409,   1.522e-4
1.411,   1.618e-4
1.413,   1.727e-4
1.415,   1.845e-4
1.417,   1.977e-4
1.419,   2.126e-4
1.421,   2.294e-4
1.423,   2.480e-4
1.425,   2.685e-4
1.427,   2.917e-4
1.429,   3.170e-4
1.431,   3.451e-4
1.433,   3.754e-4
1.435,   4.095e-4
1.437,   4.473e-4
1.439,   4.879e-4
1.441,   5.325e-4
1.443,   5.814e-4
1.445,   6.350e-4
1.447,   6.929e-4
1.449,   7.558e-4
1.451,   8.241e-4
1.453,   8.986e-4
1.455,   9.782e-4
1.457,   1.064e-3
1.459,   1.156e-3
1.461,   1.256e-3
1.463,   1.361e-3
1.465,   1.474e-3
1.467,   1.595e-3
1.469,   1.727e-3
1.471,   1.864e-3
1.473,   2.008e-3
1.475,   2.170e-3
1.477,   2.327e-3
1.479,   2.496e-3
1.481,   2.667e-3
1.483,   2.852e-3
1.485,   3.077e-3
1.487,   3.269e-3
1.489,   3.514e-3
1.491,   3.729e-3
1.493,   3.956e-3
1.495,   4.194e-3
1.497,   4.438e-3
1.499,   4.676e-3
1.501,   4.923e-3
1.503,   5.646e-3
1.505,   5.952e-3
1.507,   6.531e-3
1.509,   6.766e-3
1.511,   7.027e-3
1.513,   7.436e-3
1.515,   7.802e-3
1.517,   8.287e-3
1.519,   8.589e-3
1.521,   9.192e-3
1.523,   9.605e-3
1.525,   1.006e-2
1.527,   1.007e-2
1.529,   1.007e-2
1.531,   1.007e-2
1.532,   1.007e-2