File: Experimental Records and Raw Data/batch2/final500/B2_BEST_500#3_Full-293mV.txt
Jan. 18, 2023   16:31:06
Linear Sweep Voltammetry
File: d:\current work\al_oer\electrochemical test data\batch 2\500\B2_BEST_500#3_Full-293mV.txt
Data Source:  Experiment
Instrument Model:  CHI660E
Header:
Note:

Init E (V) = 1.098

Final E (V) = 1.797

Scan Rate (V/s) = 0.010
Sample Interval (V) = 0.001
Quiet Time (sec) = 2
Sensitivity (A/V) = 0.001
Comp R (ohm) = 5.1

Results:

Channel 1:

Potential/V, Current/A
1.098,   8.710e-5
1.101,   8.229e-5
1.104,   7.807e-5
1.107,   7.516e-5
1.110,   7.305e-5
1.113,   7.152e-5
1.116,   7.034e-5
1.119,   6.951e-5
1.122,   6.884e-5
1.125,   6.839e-5
1.128,   6.806e-5
1.131,   6.775e-5
1.134,   6.750e-5
1.137,   6.733e-5
1.140,   6.717e-5
1.143,   6.702e-5
1.146,   6.690e-5
1.149,   6.678e-5
1.152,   6.663e-5
1.155,   6.647e-5
1.158,   6.639e-5
1.161,   6.625e-5
1.164,   6.608e-5
1.167,   6.597e-5
1.170,   6.585e-5
1.173,   6.576e-5
1.176,   6.560e-5
1.179,   6.548e-5
1.182,   6.534e-5
1.185,   6.523e-5
1.188,   6.509e-5
1.191,   6.492e-5
1.194,   6.482e-5
1.197,   6.471e-5
1.200,   6.454e-5
1.203,   6.439e-5
1.206,   6.424e-5
1.209,   6.406e-5
1.212,   6.392e-5
1.215,   6.376e-5
1.218,   6.351e-5
1.221,   6.340e-5
1.224,   6.319e-5
1.227,   6.295e-5
1.230,   6.269e-5
1.233,   6.246e-5
1.236,   6.217e-5
1.239,   6.188e-5
1.242,   6.159e-5
1.245,   6.124e-5
1.248,   6.098e-5
1.251,   6.064e-5
1.254,   6.033e-5
1.257,   5.996e-5
1.260,   5.962e-5
1.263,   5.921e-5
1.266,   5.879e-5
1.269,   5.843e-5
1.272,   5.808e-5
1.275,   5.768e-5
1.278,   5.730e-5
1.281,   5.691e-5
1.284,   5.650e-5
1.287,   5.610e-5
1.290,   5.579e-5
1.293,   5.550e-5
1.296,   5.515e-5
1.299,   5.485e-5
1.302,   5.454e-5
1.305,   5.415e-5
1.308,   5.382e-5
1.311,   5.347e-5
1.314,   5.311e-5
1.317,   5.281e-5
1.320,   5.247e-5
1.323,   5.213e-5
1.326,   5.177e-5
1.329,   5.131e-5
1.332,   5.096e-5
1.335,   5.051e-5
1.338,   5.016e-5
1.341,   4.980e-5
1.344,   4.947e-5
1.347,   4.917e-5
1.350,   4.875e-5
1.353,   4.850e-5
1.356,   4.830e-5
1.359,   4.806e-5
1.362,   4.782e-5
1.365,   4.778e-5
1.368,   4.775e-5
1.371,   4.796e-5
1.374,   4.832e-5
1.377,   4.893e-5
1.380,   4.973e-5
1.383,   5.078e-5
1.386,   5.207e-5
1.389,   5.360e-5
1.392,   5.544e-5
1.395,   5.744e-5
1.398,   5.962e-5
1.401,   6.224e-5
1.404,   6.502e-5
1.407,   6.817e-5
1.410,   7.173e-5
1.413,   7.577e-5
1.416,   8.025e-5
1.419,   8.541e-5
1.422,   9.114e-5
1.425,   9.776e-5
1.428,   1.052e-4
1.431,   1.137e-4
1.434,   1.233e-4
1.437,   1.342e-4
1.440,   1.466e-4
1.443,   1.606e-4
1.446,   1.764e-4
1.449,   1.943e-4
1.452,   2.144e-4
1.455,   2.371e-4
1.458,   2.624e-4
1.461,   2.908e-4
1.464,   3.225e-4
1.467,   3.579e-4
1.470,   3.974e-4
1.473,   4.412e-4
1.476,   4.894e-4
1.479,   5.426e-4
1.482,   6.006e-4
1.485,   6.652e-4
1.488,   7.349e-4
1.491,   8.103e-4
1.494,   8.914e-4
1.497,   9.784e-4
1.500,   1.070e-3
1.503,   1.168e-3
1.506,   1.270e-3
1.509,   1.379e-3
1.512,   1.493e-3
1.515,   1.611e-3
1.518,   1.730e-3
1.521,   1.853e-3
1.524,   1.977e-3
1.527,   2.107e-3
1.530,   2.236e-3
1.533,   2.371e-3
1.536,   2.539e-3
1.539,   2.674e-3
1.542,   2.808e-3
1.545,   2.944e-3
1.548,   3.082e-3
1.551,   3.220e-3
1.554,   3.363e-3
1.557,   3.504e-3
1.560,   3.641e-3
1.563,   3.794e-3
1.566,   3.940e-3
1.569,   4.082e-3
1.572,   4.223e-3
1.575,   4.369e-3
1.578,   4.509e-3
1.581,   4.677e-3
1.584,   4.825e-3
1.587,   4.953e-3
1.590,   5.108e-3
1.593,   5.265e-3
1.596,   5.404e-3
1.599,   5.543e-3
1.602,   5.791e-3
1.605,   5.945e-3
1.608,   6.080e-3
1.611,   6.208e-3
1.614,   6.332e-3
1.617,   6.447e-3
1.620,   6.557e-3
1.623,   6.665e-3
1.626,   6.772e-3
1.629,   6.889e-3
1.632,   6.991e-3
1.635,   7.076e-3
1.638,   7.203e-3
1.641,   7.297e-3
1.644,   7.393e-3
1.647,   7.550e-3
1.650,   7.618e-3
1.653,   7.692e-3
1.656,   7.752e-3
1.659,   7.832e-3
1.662,   7.931e-3
1.665,   7.995e-3
1.668,   8.069e-3
1.671,   8.112e-3
1.674,   8.168e-3
1.677,   8.246e-3
1.680,   8.334e-3
1.683,   8.354e-3
1.686,   8.477e-3
1.689,   8.504e-3
1.692,   8.536e-3
1.695,   8.570e-3
1.698,   8.578e-3
1.701,   8.588e-3
1.704,   8.634e-3
1.707,   8.623e-3
1.710,   8.629e-3
1.713,   8.648e-3
1.716,   8.686e-3
1.719,   8.661e-3
1.722,   8.681e-3
1.725,   8.679e-3
1.728,   8.625e-3
1.731,   8.656e-3
1.734,   8.641e-3
1.737,   8.593e-3
1.740,   8.570e-3
1.743,   8.521e-3
1.746,   8.488e-3
1.749,   8.466e-3
1.752,   8.466e-3
1.755,   8.406e-3
1.758,   8.369e-3
1.761,   8.298e-3
1.764,   8.254e-3
1.767,   8.218e-3
1.770,   8.157e-3
1.773,   8.103e-3
1.776,   8.065e-3
1.779,   8.014e-3
1.782,   7.961e-3
1.785,   7.921e-3
1.788,   7.826e-3
1.791,   7.799e-3
1.794,   7.731e-3
1.797,   7.666e-3