File: Experimental Records and Raw Data/batch2/final500/B2_BEST_500#10_High_Quality-248mV.txt
Jan. 18, 2023   15:27:19
Linear Sweep Voltammetry
File: d:\current work\al_oer\electrochemical test data\batch 2\500\B2_BEST_500#10_High_Quality-248mV.txt
Data Source:  Experiment
Instrument Model:  CHI660E
Header:
Note:

Init E (V) = 1.100

Final E (V) = 1.543

Scan Rate (V/s) = 0.010
Sample Interval (V) = 0.001
Quiet Time (sec) = 2
Sensitivity (A/V) = 0.001
Comp R (ohm) = 4.9

Results:

Channel 1:

Potential/V, Current/A
1.100,   1.520e-4
1.102,   1.416e-4
1.104,   1.271e-4
1.106,   1.153e-4
1.108,   1.059e-4
1.110,   9.835e-5
1.112,   9.207e-5
1.114,   8.680e-5
1.116,   8.255e-5
1.118,   7.884e-5
1.120,   7.560e-5
1.122,   7.276e-5
1.124,   7.026e-5
1.126,   6.819e-5
1.128,   6.636e-5
1.130,   6.461e-5
1.132,   6.308e-5
1.134,   6.193e-5
1.136,   6.085e-5
1.138,   5.964e-5
1.140,   5.866e-5
1.142,   5.796e-5
1.144,   5.714e-5
1.146,   5.643e-5
1.148,   5.594e-5
1.150,   5.542e-5
1.152,   5.490e-5
1.154,   5.453e-5
1.156,   5.404e-5
1.158,   5.376e-5
1.160,   5.353e-5
1.162,   5.313e-5
1.164,   5.291e-5
1.166,   5.287e-5
1.168,   5.261e-5
1.170,   5.240e-5
1.172,   5.243e-5
1.174,   5.223e-5
1.176,   5.226e-5
1.178,   5.202e-5
1.180,   5.194e-5
1.182,   5.210e-5
1.184,   5.212e-5
1.186,   5.192e-5
1.188,   5.197e-5
1.190,   5.208e-5
1.192,   5.207e-5
1.194,   5.214e-5
1.196,   5.211e-5
1.198,   5.225e-5
1.200,   5.232e-5
1.202,   5.246e-5
1.204,   5.235e-5
1.206,   5.258e-5
1.208,   5.273e-5
1.210,   5.265e-5
1.212,   5.269e-5
1.214,   5.301e-5
1.216,   5.308e-5
1.218,   5.304e-5
1.220,   5.321e-5
1.222,   5.331e-5
1.224,   5.340e-5
1.226,   5.354e-5
1.228,   5.359e-5
1.230,   5.367e-5
1.232,   5.393e-5
1.234,   5.396e-5
1.236,   5.400e-5
1.238,   5.412e-5
1.240,   5.440e-5
1.242,   5.422e-5
1.244,   5.427e-5
1.246,   5.459e-5
1.248,   5.458e-5
1.250,   5.452e-5
1.252,   5.469e-5
1.254,   5.480e-5
1.256,   5.485e-5
1.258,   5.490e-5
1.260,   5.488e-5
1.262,   5.501e-5
1.264,   5.516e-5
1.266,   5.515e-5
1.268,   5.510e-5
1.270,   5.538e-5
1.272,   5.540e-5
1.274,   5.531e-5
1.276,   5.538e-5
1.278,   5.558e-5
1.280,   5.548e-5
1.282,   5.544e-5
1.284,   5.560e-5
1.286,   5.562e-5
1.288,   5.570e-5
1.290,   5.582e-5
1.292,   5.564e-5
1.294,   5.583e-5
1.296,   5.600e-5
1.298,   5.593e-5
1.300,   5.595e-5
1.302,   5.614e-5
1.304,   5.616e-5
1.306,   5.611e-5
1.308,   5.616e-5
1.310,   5.640e-5
1.312,   5.630e-5
1.314,   5.644e-5
1.316,   5.650e-5
1.318,   5.657e-5
1.320,   5.673e-5
1.322,   5.681e-5
1.324,   5.672e-5
1.326,   5.706e-5
1.328,   5.724e-5
1.330,   5.717e-5
1.332,   5.730e-5
1.334,   5.764e-5
1.336,   5.774e-5
1.338,   5.773e-5
1.340,   5.802e-5
1.342,   5.830e-5
1.344,   5.834e-5
1.346,   5.851e-5
1.348,   5.886e-5
1.350,   5.914e-5
1.352,   5.944e-5
1.354,   5.976e-5
1.356,   5.998e-5
1.358,   6.045e-5
1.360,   6.104e-5
1.362,   6.125e-5
1.364,   6.168e-5
1.366,   6.247e-5
1.368,   6.296e-5
1.370,   6.357e-5
1.372,   6.434e-5
1.374,   6.529e-5
1.376,   6.611e-5
1.378,   6.726e-5
1.380,   6.844e-5
1.382,   6.976e-5
1.384,   7.132e-5
1.386,   7.306e-5
1.388,   7.482e-5
1.390,   7.737e-5
1.392,   7.987e-5
1.394,   8.237e-5
1.396,   8.563e-5
1.398,   8.938e-5
1.400,   9.329e-5
1.402,   9.771e-5
1.404,   1.029e-4
1.406,   1.087e-4
1.408,   1.151e-4
1.410,   1.225e-4
1.412,   1.304e-4
1.414,   1.395e-4
1.416,   1.496e-4
1.418,   1.607e-4
1.420,   1.730e-4
1.422,   1.871e-4
1.424,   2.023e-4
1.426,   2.193e-4
1.428,   2.386e-4
1.430,   2.594e-4
1.432,   2.821e-4
1.434,   3.072e-4
1.436,   3.346e-4
1.438,   3.650e-4
1.440,   3.985e-4
1.442,   4.344e-4
1.444,   4.736e-4
1.446,   5.152e-4
1.448,   5.611e-4
1.450,   6.116e-4
1.452,   6.657e-4
1.454,   7.247e-4
1.456,   7.882e-4
1.458,   8.561e-4
1.460,   9.289e-4
1.462,   1.009e-3
1.464,   1.094e-3
1.466,   1.185e-3
1.468,   1.281e-3
1.470,   1.384e-3
1.472,   1.495e-3
1.474,   1.612e-3
1.476,   1.736e-3
1.478,   1.866e-3
1.480,   2.006e-3
1.482,   2.152e-3
1.484,   2.309e-3
1.486,   2.475e-3
1.488,   2.645e-3
1.490,   2.825e-3
1.492,   3.013e-3
1.494,   3.210e-3
1.496,   3.427e-3
1.498,   3.671e-3
1.500,   3.897e-3
1.502,   4.133e-3
1.504,   4.366e-3
1.506,   4.618e-3
1.508,   4.963e-3
1.510,   5.251e-3
1.512,   5.532e-3
1.514,   5.807e-3
1.516,   6.101e-3
1.518,   6.405e-3
1.520,   6.743e-3
1.522,   7.144e-3
1.524,   7.443e-3
1.526,   7.791e-3
1.528,   8.171e-3
1.530,   8.578e-3
1.532,   9.002e-3
1.534,   9.384e-3
1.536,   9.783e-3
1.538,   1.007e-2
1.540,   1.007e-2
1.542,   1.007e-2
1.543,   1.007e-2