File: Experimental Records and Raw Data/batch2/final500/B2_BEST_500#11_Full-301mV.txt
Jan. 18, 2023   17:13:15
Linear Sweep Voltammetry
File: d:\current work\al_oer\electrochemical test data\batch 2\500\B2_BEST_500#11_Full-301mV.txt
Data Source:  Experiment
Instrument Model:  CHI660E
Header:
Note:

Init E (V) = 1.099

Final E (V) = 1.668

Scan Rate (V/s) = 0.010
Sample Interval (V) = 0.001
Quiet Time (sec) = 2
Sensitivity (A/V) = 0.001
Comp R (ohm) = 4.9

Results:

Channel 1:

Potential/V, Current/A
1.099,   7.962e-5
1.101,   7.069e-5
1.103,   6.160e-5
1.105,   5.470e-5
1.107,   4.922e-5
1.109,   4.497e-5
1.111,   4.155e-5
1.113,   3.874e-5
1.115,   3.651e-5
1.117,   3.462e-5
1.119,   3.301e-5
1.121,   3.171e-5
1.123,   3.049e-5
1.125,   2.953e-5
1.127,   2.863e-5
1.129,   2.797e-5
1.131,   2.727e-5
1.133,   2.678e-5
1.135,   2.631e-5
1.137,   2.582e-5
1.139,   2.549e-5
1.141,   2.523e-5
1.143,   2.490e-5
1.145,   2.466e-5
1.147,   2.447e-5
1.149,   2.430e-5
1.151,   2.406e-5
1.153,   2.398e-5
1.155,   2.383e-5
1.157,   2.377e-5
1.159,   2.373e-5
1.161,   2.363e-5
1.163,   2.353e-5
1.165,   2.359e-5
1.167,   2.356e-5
1.169,   2.348e-5
1.171,   2.358e-5
1.173,   2.359e-5
1.175,   2.354e-5
1.177,   2.353e-5
1.179,   2.361e-5
1.181,   2.365e-5
1.183,   2.368e-5
1.185,   2.374e-5
1.187,   2.374e-5
1.189,   2.385e-5
1.191,   2.396e-5
1.193,   2.386e-5
1.195,   2.396e-5
1.197,   2.421e-5
1.199,   2.418e-5
1.201,   2.417e-5
1.203,   2.438e-5
1.205,   2.448e-5
1.207,   2.447e-5
1.209,   2.466e-5
1.211,   2.476e-5
1.213,   2.481e-5
1.215,   2.497e-5
1.217,   2.500e-5
1.219,   2.506e-5
1.221,   2.528e-5
1.223,   2.542e-5
1.225,   2.534e-5
1.227,   2.552e-5
1.229,   2.573e-5
1.231,   2.576e-5
1.233,   2.588e-5
1.235,   2.602e-5
1.237,   2.601e-5
1.239,   2.621e-5
1.241,   2.634e-5
1.243,   2.632e-5
1.245,   2.647e-5
1.247,   2.663e-5
1.249,   2.668e-5
1.251,   2.671e-5
1.253,   2.697e-5
1.255,   2.703e-5
1.257,   2.705e-5
1.259,   2.717e-5
1.261,   2.736e-5
1.263,   2.738e-5
1.265,   2.747e-5
1.267,   2.760e-5
1.269,   2.770e-5
1.271,   2.778e-5
1.273,   2.795e-5
1.275,   2.796e-5
1.277,   2.805e-5
1.279,   2.825e-5
1.281,   2.835e-5
1.283,   2.833e-5
1.285,   2.845e-5
1.287,   2.868e-5
1.289,   2.866e-5
1.291,   2.876e-5
1.293,   2.900e-5
1.295,   2.904e-5
1.297,   2.907e-5
1.299,   2.934e-5
1.301,   2.945e-5
1.303,   2.946e-5
1.305,   2.966e-5
1.307,   2.983e-5
1.309,   2.995e-5
1.311,   3.015e-5
1.313,   3.032e-5
1.315,   3.041e-5
1.317,   3.064e-5
1.319,   3.083e-5
1.321,   3.091e-5
1.323,   3.108e-5
1.325,   3.143e-5
1.327,   3.157e-5
1.329,   3.177e-5
1.331,   3.198e-5
1.333,   3.226e-5
1.335,   3.249e-5
1.337,   3.279e-5
1.339,   3.292e-5
1.341,   3.327e-5
1.343,   3.367e-5
1.345,   3.390e-5
1.347,   3.413e-5
1.349,   3.461e-5
1.351,   3.493e-5
1.353,   3.519e-5
1.355,   3.560e-5
1.357,   3.605e-5
1.359,   3.636e-5
1.361,   3.681e-5
1.363,   3.723e-5
1.365,   3.762e-5
1.367,   3.811e-5
1.369,   3.860e-5
1.371,   3.912e-5
1.373,   3.965e-5
1.375,   4.024e-5
1.377,   4.071e-5
1.379,   4.128e-5
1.381,   4.199e-5
1.383,   4.256e-5
1.385,   4.319e-5
1.387,   4.395e-5
1.389,   4.471e-5
1.391,   4.540e-5
1.393,   4.629e-5
1.395,   4.714e-5
1.397,   4.810e-5
1.399,   4.915e-5
1.401,   5.019e-5
1.403,   5.122e-5
1.405,   5.254e-5
1.407,   5.397e-5
1.409,   5.526e-5
1.411,   5.684e-5
1.413,   5.863e-5
1.415,   6.045e-5
1.417,   6.238e-5
1.419,   6.480e-5
1.421,   6.718e-5
1.423,   6.980e-5
1.425,   7.284e-5
1.427,   7.624e-5
1.429,   7.983e-5
1.431,   8.377e-5
1.433,   8.784e-5
1.435,   9.266e-5
1.437,   9.810e-5
1.439,   1.038e-4
1.441,   1.099e-4
1.443,   1.170e-4
1.445,   1.246e-4
1.447,   1.328e-4
1.449,   1.418e-4
1.451,   1.515e-4
1.453,   1.622e-4
1.455,   1.738e-4
1.457,   1.865e-4
1.459,   2.000e-4
1.461,   2.149e-4
1.463,   2.310e-4
1.465,   2.482e-4
1.467,   2.672e-4
1.469,   2.873e-4
1.471,   3.089e-4
1.473,   3.324e-4
1.475,   3.566e-4
1.477,   3.831e-4
1.479,   4.114e-4
1.481,   4.415e-4
1.483,   4.735e-4
1.485,   5.073e-4
1.487,   5.436e-4
1.489,   5.823e-4
1.491,   6.230e-4
1.493,   6.660e-4
1.495,   7.119e-4
1.497,   7.578e-4
1.499,   8.074e-4
1.501,   8.588e-4
1.503,   9.124e-4
1.505,   9.684e-4
1.507,   1.028e-3
1.509,   1.091e-3
1.511,   1.154e-3
1.513,   1.219e-3
1.515,   1.286e-3
1.517,   1.357e-3
1.519,   1.432e-3
1.521,   1.506e-3
1.523,   1.584e-3
1.525,   1.664e-3
1.527,   1.744e-3
1.529,   1.824e-3
1.531,   1.911e-3
1.533,   2.000e-3
1.535,   2.089e-3
1.537,   2.185e-3
1.539,   2.285e-3
1.541,   2.381e-3
1.543,   2.479e-3
1.545,   2.594e-3
1.547,   2.696e-3
1.549,   2.803e-3
1.551,   2.911e-3
1.553,   3.008e-3
1.555,   3.125e-3
1.557,   3.242e-3
1.559,   3.361e-3
1.561,   3.521e-3
1.563,   3.628e-3
1.565,   3.748e-3
1.567,   3.890e-3
1.569,   4.081e-3
1.571,   4.200e-3
1.573,   4.315e-3
1.575,   4.434e-3
1.577,   4.588e-3
1.579,   4.700e-3
1.581,   4.897e-3
1.583,   5.092e-3
1.585,   5.203e-3
1.587,   5.350e-3
1.589,   5.559e-3
1.591,   5.673e-3
1.593,   5.821e-3
1.595,   6.027e-3
1.597,   6.235e-3
1.599,   6.381e-3
1.601,   6.575e-3
1.603,   6.697e-3
1.605,   6.883e-3
1.607,   7.049e-3
1.609,   7.233e-3
1.611,   7.478e-3
1.613,   7.645e-3
1.615,   7.845e-3
1.617,   8.025e-3
1.619,   8.260e-3
1.621,   8.407e-3
1.623,   8.626e-3
1.625,   8.782e-3
1.627,   9.047e-3
1.629,   9.275e-3
1.631,   9.468e-3
1.633,   9.670e-3
1.635,   9.899e-3
1.637,   1.006e-2
1.639,   1.007e-2
1.641,   1.007e-2
1.643,   1.007e-2
1.645,   1.007e-2
1.647,   1.007e-2
1.649,   1.007e-2
1.651,   1.007e-2
1.653,   1.007e-2
1.655,   1.007e-2
1.657,   1.007e-2
1.659,   1.007e-2
1.661,   1.007e-2
1.663,   1.007e-2
1.665,   1.007e-2
1.667,   1.007e-2
1.668,   1.007e-2