File: Experimental Records and Raw Data/batch2/final500/B2_VARIANCE_500#16_Full-321mV.txt
Jan. 19, 2023   13:24:56
Linear Sweep Voltammetry
File: d:\current work\al_oer\electrochemical test data\batch 2\500\B2_VARIANCE_500#16_Full-321mV.txt
Data Source:  Experiment
Instrument Model:  CHI660E
Header:
Note:

Init E (V) = 1.101

Final E (V) = 1.703

Scan Rate (V/s) = 0.010
Sample Interval (V) = 0.001
Quiet Time (sec) = 2
Sensitivity (A/V) = 0.001
Comp R (ohm) = 5.7

Results:

Channel 1:

Potential/V, Current/A
1.101,   3.096e-5
1.104,   2.582e-5
1.107,   2.161e-5
1.110,   1.867e-5
1.113,   1.662e-5
1.116,   1.513e-5
1.119,   1.388e-5
1.122,   1.300e-5
1.125,   1.229e-5
1.128,   1.171e-5
1.131,   1.120e-5
1.134,   1.081e-5
1.137,   1.052e-5
1.140,   1.026e-5
1.143,   1.002e-5
1.146,   9.826e-6
1.149,   9.703e-6
1.152,   9.532e-6
1.155,   9.442e-6
1.158,   9.391e-6
1.161,   9.298e-6
1.164,   9.251e-6
1.167,   9.236e-6
1.170,   9.246e-6
1.173,   9.185e-6
1.176,   9.193e-6
1.179,   9.196e-6
1.182,   9.214e-6
1.185,   9.252e-6
1.188,   9.262e-6
1.191,   9.320e-6
1.194,   9.363e-6
1.197,   9.360e-6
1.200,   9.440e-6
1.203,   9.515e-6
1.206,   9.577e-6
1.209,   9.659e-6
1.212,   9.723e-6
1.215,   9.777e-6
1.218,   9.888e-6
1.221,   9.942e-6
1.224,   1.000e-5
1.227,   1.010e-5
1.230,   1.018e-5
1.233,   1.025e-5
1.236,   1.033e-5
1.239,   1.042e-5
1.242,   1.054e-5
1.245,   1.058e-5
1.248,   1.064e-5
1.251,   1.071e-5
1.254,   1.082e-5
1.257,   1.090e-5
1.260,   1.099e-5
1.263,   1.106e-5
1.266,   1.114e-5
1.269,   1.123e-5
1.272,   1.132e-5
1.275,   1.142e-5
1.278,   1.155e-5
1.281,   1.162e-5
1.284,   1.177e-5
1.287,   1.184e-5
1.290,   1.194e-5
1.293,   1.208e-5
1.296,   1.226e-5
1.299,   1.234e-5
1.302,   1.252e-5
1.305,   1.268e-5
1.308,   1.289e-5
1.311,   1.303e-5
1.314,   1.325e-5
1.317,   1.342e-5
1.320,   1.368e-5
1.323,   1.390e-5
1.326,   1.421e-5
1.329,   1.447e-5
1.332,   1.481e-5
1.335,   1.511e-5
1.338,   1.541e-5
1.341,   1.579e-5
1.344,   1.624e-5
1.347,   1.665e-5
1.350,   1.705e-5
1.353,   1.753e-5
1.356,   1.807e-5
1.359,   1.855e-5
1.362,   1.912e-5
1.365,   1.968e-5
1.368,   2.029e-5
1.371,   2.096e-5
1.374,   2.158e-5
1.377,   2.231e-5
1.380,   2.308e-5
1.383,   2.390e-5
1.386,   2.473e-5
1.389,   2.565e-5
1.392,   2.666e-5
1.395,   2.768e-5
1.398,   2.889e-5
1.401,   3.008e-5
1.404,   3.153e-5
1.407,   3.312e-5
1.410,   3.492e-5
1.413,   3.690e-5
1.416,   3.911e-5
1.419,   4.164e-5
1.422,   4.466e-5
1.425,   4.806e-5
1.428,   5.197e-5
1.431,   5.640e-5
1.434,   6.138e-5
1.437,   6.717e-5
1.440,   7.373e-5
1.443,   8.133e-5
1.446,   8.980e-5
1.449,   9.942e-5
1.452,   1.103e-4
1.455,   1.225e-4
1.458,   1.362e-4
1.461,   1.515e-4
1.464,   1.688e-4
1.467,   1.878e-4
1.470,   2.088e-4
1.473,   2.323e-4
1.476,   2.581e-4
1.479,   2.866e-4
1.482,   3.179e-4
1.485,   3.518e-4
1.488,   3.888e-4
1.491,   4.289e-4
1.494,   4.724e-4
1.497,   5.188e-4
1.500,   5.687e-4
1.503,   6.221e-4
1.506,   6.792e-4
1.509,   7.394e-4
1.512,   8.034e-4
1.515,   8.704e-4
1.518,   9.413e-4
1.521,   1.016e-3
1.524,   1.093e-3
1.527,   1.173e-3
1.530,   1.256e-3
1.533,   1.343e-3
1.536,   1.433e-3
1.539,   1.525e-3
1.542,   1.620e-3
1.545,   1.718e-3
1.548,   1.820e-3
1.551,   1.923e-3
1.554,   2.029e-3
1.557,   2.139e-3
1.560,   2.251e-3
1.563,   2.365e-3
1.566,   2.482e-3
1.569,   2.601e-3
1.572,   2.723e-3
1.575,   2.845e-3
1.578,   2.969e-3
1.581,   3.096e-3
1.584,   3.224e-3
1.587,   3.365e-3
1.590,   3.495e-3
1.593,   3.628e-3
1.596,   3.765e-3
1.599,   3.900e-3
1.602,   4.043e-3
1.605,   4.179e-3
1.608,   4.321e-3
1.611,   4.464e-3
1.614,   4.604e-3
1.617,   4.747e-3
1.620,   4.891e-3
1.623,   5.056e-3
1.626,   5.191e-3
1.629,   5.326e-3
1.632,   5.463e-3
1.635,   5.586e-3
1.638,   5.728e-3
1.641,   5.957e-3
1.644,   6.232e-3
1.647,   6.406e-3
1.650,   6.534e-3
1.653,   6.697e-3
1.656,   6.828e-3
1.659,   6.985e-3
1.662,   7.090e-3
1.665,   7.218e-3
1.668,   7.366e-3
1.671,   7.503e-3
1.674,   8.476e-3
1.677,   8.442e-3
1.680,   8.529e-3
1.683,   8.578e-3
1.686,   8.638e-3
1.689,   8.710e-3
1.692,   8.838e-3
1.695,   8.938e-3
1.698,   9.047e-3
1.701,   9.122e-3
1.703,   9.145e-3