File: Experimental Records and Raw Data/batch2/final500/B2_VARIANCE_500#6_High_Quality-311mV.txt
Jan. 18, 2023   16:20:27
Linear Sweep Voltammetry
File: d:\current work\al_oer\electrochemical test data\batch 2\500\B2_VARIANCE_500#6_High_Quality-311mV.txt
Data Source:  Experiment
Instrument Model:  CHI660E
Header:
Note:

Init E (V) = 1.098

Final E (V) = 1.669

Scan Rate (V/s) = 0.010
Sample Interval (V) = 0.001
Quiet Time (sec) = 2
Sensitivity (A/V) = 0.001
Comp R (ohm) = 5.1

Results:

Channel 1:

Potential/V, Current/A
1.098,   9.556e-5
1.100,   8.487e-5
1.102,   7.422e-5
1.104,   6.587e-5
1.106,   5.923e-5
1.108,   5.382e-5
1.110,   4.945e-5
1.112,   4.574e-5
1.114,   4.263e-5
1.116,   4.002e-5
1.118,   3.790e-5
1.120,   3.593e-5
1.122,   3.421e-5
1.124,   3.284e-5
1.126,   3.158e-5
1.128,   3.048e-5
1.130,   2.957e-5
1.132,   2.874e-5
1.134,   2.792e-5
1.136,   2.728e-5
1.138,   2.671e-5
1.140,   2.618e-5
1.142,   2.567e-5
1.144,   2.528e-5
1.146,   2.487e-5
1.148,   2.459e-5
1.150,   2.426e-5
1.152,   2.399e-5
1.154,   2.370e-5
1.156,   2.358e-5
1.158,   2.333e-5
1.160,   2.312e-5
1.162,   2.294e-5
1.164,   2.284e-5
1.166,   2.276e-5
1.168,   2.265e-5
1.170,   2.253e-5
1.172,   2.252e-5
1.174,   2.246e-5
1.176,   2.238e-5
1.178,   2.229e-5
1.180,   2.224e-5
1.182,   2.225e-5
1.184,   2.218e-5
1.186,   2.217e-5
1.188,   2.223e-5
1.190,   2.220e-5
1.192,   2.221e-5
1.194,   2.221e-5
1.196,   2.224e-5
1.198,   2.224e-5
1.200,   2.229e-5
1.202,   2.226e-5
1.204,   2.232e-5
1.206,   2.242e-5
1.208,   2.243e-5
1.210,   2.238e-5
1.212,   2.255e-5
1.214,   2.259e-5
1.216,   2.260e-5
1.218,   2.264e-5
1.220,   2.274e-5
1.222,   2.278e-5
1.224,   2.282e-5
1.226,   2.293e-5
1.228,   2.295e-5
1.230,   2.300e-5
1.232,   2.309e-5
1.234,   2.309e-5
1.236,   2.320e-5
1.238,   2.329e-5
1.240,   2.331e-5
1.242,   2.337e-5
1.244,   2.353e-5
1.246,   2.351e-5
1.248,   2.359e-5
1.250,   2.362e-5
1.252,   2.372e-5
1.254,   2.375e-5
1.256,   2.386e-5
1.258,   2.388e-5
1.260,   2.400e-5
1.262,   2.410e-5
1.264,   2.413e-5
1.266,   2.422e-5
1.268,   2.436e-5
1.270,   2.434e-5
1.272,   2.442e-5
1.274,   2.449e-5
1.276,   2.462e-5
1.278,   2.465e-5
1.280,   2.476e-5
1.282,   2.485e-5
1.284,   2.501e-5
1.286,   2.505e-5
1.288,   2.512e-5
1.290,   2.521e-5
1.292,   2.531e-5
1.294,   2.547e-5
1.296,   2.553e-5
1.298,   2.566e-5
1.300,   2.579e-5
1.302,   2.594e-5
1.304,   2.600e-5
1.306,   2.611e-5
1.308,   2.637e-5
1.310,   2.642e-5
1.312,   2.661e-5
1.314,   2.680e-5
1.316,   2.695e-5
1.318,   2.709e-5
1.320,   2.728e-5
1.322,   2.743e-5
1.324,   2.766e-5
1.326,   2.798e-5
1.328,   2.817e-5
1.330,   2.832e-5
1.332,   2.870e-5
1.334,   2.891e-5
1.336,   2.920e-5
1.338,   2.952e-5
1.340,   2.990e-5
1.342,   3.012e-5
1.344,   3.052e-5
1.346,   3.080e-5
1.348,   3.125e-5
1.350,   3.162e-5
1.352,   3.200e-5
1.354,   3.243e-5
1.356,   3.282e-5
1.358,   3.333e-5
1.360,   3.379e-5
1.362,   3.418e-5
1.364,   3.471e-5
1.366,   3.525e-5
1.368,   3.578e-5
1.370,   3.631e-5
1.372,   3.690e-5
1.374,   3.744e-5
1.376,   3.802e-5
1.378,   3.866e-5
1.380,   3.931e-5
1.382,   3.993e-5
1.384,   4.061e-5
1.386,   4.131e-5
1.388,   4.212e-5
1.390,   4.284e-5
1.392,   4.365e-5
1.394,   4.442e-5
1.396,   4.543e-5
1.398,   4.633e-5
1.400,   4.724e-5
1.402,   4.834e-5
1.404,   4.948e-5
1.406,   5.067e-5
1.408,   5.195e-5
1.410,   5.329e-5
1.412,   5.475e-5
1.414,   5.632e-5
1.416,   5.811e-5
1.418,   5.990e-5
1.420,   6.198e-5
1.422,   6.416e-5
1.424,   6.652e-5
1.426,   6.930e-5
1.428,   7.222e-5
1.430,   7.530e-5
1.432,   7.865e-5
1.434,   8.247e-5
1.436,   8.664e-5
1.438,   9.098e-5
1.440,   9.584e-5
1.442,   1.012e-4
1.444,   1.069e-4
1.446,   1.133e-4
1.448,   1.201e-4
1.450,   1.275e-4
1.452,   1.356e-4
1.454,   1.444e-4
1.456,   1.537e-4
1.458,   1.640e-4
1.460,   1.752e-4
1.462,   1.871e-4
1.464,   2.000e-4
1.466,   2.138e-4
1.468,   2.288e-4
1.470,   2.448e-4
1.472,   2.621e-4
1.474,   2.805e-4
1.476,   3.003e-4
1.478,   3.216e-4
1.480,   3.441e-4
1.482,   3.678e-4
1.484,   3.934e-4
1.486,   4.206e-4
1.488,   4.493e-4
1.490,   4.796e-4
1.492,   5.118e-4
1.494,   5.455e-4
1.496,   5.811e-4
1.498,   6.187e-4
1.500,   6.580e-4
1.502,   6.990e-4
1.504,   7.425e-4
1.506,   7.880e-4
1.508,   8.351e-4
1.510,   8.845e-4
1.512,   9.354e-4
1.514,   9.890e-4
1.516,   1.045e-3
1.518,   1.103e-3
1.520,   1.162e-3
1.522,   1.224e-3
1.524,   1.288e-3
1.526,   1.354e-3
1.528,   1.422e-3
1.530,   1.493e-3
1.532,   1.565e-3
1.534,   1.640e-3
1.536,   1.717e-3
1.538,   1.795e-3
1.540,   1.876e-3
1.542,   1.961e-3
1.544,   2.048e-3
1.546,   2.135e-3
1.548,   2.227e-3
1.550,   2.320e-3
1.552,   2.414e-3
1.554,   2.511e-3
1.556,   2.607e-3
1.558,   2.706e-3
1.560,   2.809e-3
1.562,   2.912e-3
1.564,   3.017e-3
1.566,   3.129e-3
1.568,   3.242e-3
1.570,   3.355e-3
1.572,   3.477e-3
1.574,   3.589e-3
1.576,   3.710e-3
1.578,   3.834e-3
1.580,   3.955e-3
1.582,   4.078e-3
1.584,   4.212e-3
1.586,   4.331e-3
1.588,   4.475e-3
1.590,   4.606e-3
1.592,   4.755e-3
1.594,   4.905e-3
1.596,   5.044e-3
1.598,   5.171e-3
1.600,   5.304e-3
1.602,   5.440e-3
1.604,   5.581e-3
1.606,   5.737e-3
1.608,   5.934e-3
1.610,   6.120e-3
1.612,   6.440e-3
1.614,   6.583e-3
1.616,   6.731e-3
1.618,   6.859e-3
1.620,   7.014e-3
1.622,   7.208e-3
1.624,   7.379e-3
1.626,   7.518e-3
1.628,   7.791e-3
1.630,   7.961e-3
1.632,   8.128e-3
1.634,   8.283e-3
1.636,   8.458e-3
1.638,   8.639e-3
1.640,   8.861e-3
1.642,   9.121e-3
1.644,   9.447e-3
1.646,   9.632e-3
1.648,   9.802e-3
1.650,   9.964e-3
1.652,   1.007e-2
1.654,   1.007e-2
1.656,   1.007e-2
1.658,   1.007e-2
1.660,   1.007e-2
1.662,   1.007e-2
1.664,   1.007e-2
1.666,   1.007e-2
1.668,   1.007e-2
1.669,   1.007e-2