File: Experimental Records and Raw Data/batch2/final500/B2_VARIANCE_500#2_High_Quality-247mV.txt
Jan. 18, 2023   17:03:12
Linear Sweep Voltammetry
File: d:\current work\al_oer\electrochemical test data\batch 2\500\B2_VARIANCE_500#2_High_Quality-247mV.txt
Data Source:  Experiment
Instrument Model:  CHI660E
Header:
Note:

Init E (V) = 1.098

Final E (V) = 1.550

Scan Rate (V/s) = 0.010
Sample Interval (V) = 0.001
Quiet Time (sec) = 2
Sensitivity (A/V) = 0.001
Comp R (ohm) = 4.4

Results:

Channel 1:

Potential/V, Current/A
1.098,   1.980e-4
1.100,   1.770e-4
1.102,   1.549e-4
1.104,   1.381e-4
1.106,   1.247e-4
1.108,   1.140e-4
1.110,   1.050e-4
1.112,   9.772e-5
1.114,   9.157e-5
1.116,   8.645e-5
1.118,   8.198e-5
1.120,   7.828e-5
1.122,   7.484e-5
1.124,   7.213e-5
1.126,   6.952e-5
1.128,   6.738e-5
1.130,   6.540e-5
1.132,   6.374e-5
1.134,   6.230e-5
1.136,   6.097e-5
1.138,   5.974e-5
1.140,   5.877e-5
1.142,   5.782e-5
1.144,   5.696e-5
1.146,   5.626e-5
1.148,   5.560e-5
1.150,   5.506e-5
1.152,   5.460e-5
1.154,   5.425e-5
1.156,   5.370e-5
1.158,   5.316e-5
1.160,   5.297e-5
1.162,   5.263e-5
1.164,   5.240e-5
1.166,   5.230e-5
1.168,   5.202e-5
1.170,   5.192e-5
1.172,   5.187e-5
1.174,   5.178e-5
1.176,   5.160e-5
1.178,   5.157e-5
1.180,   5.165e-5
1.182,   5.161e-5
1.184,   5.164e-5
1.186,   5.165e-5
1.188,   5.169e-5
1.190,   5.182e-5
1.192,   5.185e-5
1.194,   5.182e-5
1.196,   5.206e-5
1.198,   5.221e-5
1.200,   5.219e-5
1.202,   5.229e-5
1.204,   5.253e-5
1.206,   5.254e-5
1.208,   5.264e-5
1.210,   5.285e-5
1.212,   5.320e-5
1.214,   5.316e-5
1.216,   5.339e-5
1.218,   5.346e-5
1.220,   5.356e-5
1.222,   5.388e-5
1.224,   5.396e-5
1.226,   5.398e-5
1.228,   5.420e-5
1.230,   5.441e-5
1.232,   5.443e-5
1.234,   5.462e-5
1.236,   5.482e-5
1.238,   5.490e-5
1.240,   5.503e-5
1.242,   5.523e-5
1.244,   5.547e-5
1.246,   5.550e-5
1.248,   5.558e-5
1.250,   5.560e-5
1.252,   5.581e-5
1.254,   5.592e-5
1.256,   5.585e-5
1.258,   5.596e-5
1.260,   5.628e-5
1.262,   5.639e-5
1.264,   5.640e-5
1.266,   5.655e-5
1.268,   5.670e-5
1.270,   5.681e-5
1.272,   5.687e-5
1.274,   5.700e-5
1.276,   5.719e-5
1.278,   5.728e-5
1.280,   5.734e-5
1.282,   5.739e-5
1.284,   5.751e-5
1.286,   5.759e-5
1.288,   5.762e-5
1.290,   5.767e-5
1.292,   5.803e-5
1.294,   5.809e-5
1.296,   5.809e-5
1.298,   5.828e-5
1.300,   5.854e-5
1.302,   5.856e-5
1.304,   5.865e-5
1.306,   5.879e-5
1.308,   5.885e-5
1.310,   5.915e-5
1.312,   5.928e-5
1.314,   5.932e-5
1.316,   5.958e-5
1.318,   5.987e-5
1.320,   5.997e-5
1.322,   6.018e-5
1.324,   6.060e-5
1.326,   6.075e-5
1.328,   6.087e-5
1.330,   6.131e-5
1.332,   6.169e-5
1.334,   6.186e-5
1.336,   6.224e-5
1.338,   6.252e-5
1.340,   6.297e-5
1.342,   6.327e-5
1.344,   6.367e-5
1.346,   6.412e-5
1.348,   6.466e-5
1.350,   6.522e-5
1.352,   6.558e-5
1.354,   6.606e-5
1.356,   6.684e-5
1.358,   6.736e-5
1.360,   6.796e-5
1.362,   6.877e-5
1.364,   6.948e-5
1.366,   7.017e-5
1.368,   7.107e-5
1.370,   7.194e-5
1.372,   7.303e-5
1.374,   7.415e-5
1.376,   7.533e-5
1.378,   7.651e-5
1.380,   7.819e-5
1.382,   7.988e-5
1.384,   8.148e-5
1.386,   8.369e-5
1.388,   8.617e-5
1.390,   8.852e-5
1.392,   9.122e-5
1.394,   9.456e-5
1.396,   9.816e-5
1.398,   1.022e-4
1.400,   1.067e-4
1.402,   1.117e-4
1.404,   1.176e-4
1.406,   1.241e-4
1.408,   1.314e-4
1.410,   1.394e-4
1.412,   1.485e-4
1.414,   1.589e-4
1.416,   1.699e-4
1.418,   1.826e-4
1.420,   1.970e-4
1.422,   2.123e-4
1.424,   2.293e-4
1.426,   2.482e-4
1.428,   2.684e-4
1.430,   2.909e-4
1.432,   3.152e-4
1.434,   3.431e-4
1.436,   3.757e-4
1.438,   4.083e-4
1.440,   4.429e-4
1.442,   4.802e-4
1.444,   5.242e-4
1.446,   5.687e-4
1.448,   6.196e-4
1.450,   6.723e-4
1.452,   7.283e-4
1.454,   7.912e-4
1.456,   8.539e-4
1.458,   9.254e-4
1.460,   1.000e-3
1.462,   1.084e-3
1.464,   1.174e-3
1.466,   1.269e-3
1.468,   1.368e-3
1.470,   1.474e-3
1.472,   1.584e-3
1.474,   1.704e-3
1.476,   1.830e-3
1.478,   1.963e-3
1.480,   2.106e-3
1.482,   2.254e-3
1.484,   2.414e-3
1.486,   2.575e-3
1.488,   2.747e-3
1.490,   2.925e-3
1.492,   3.117e-3
1.494,   3.308e-3
1.496,   3.519e-3
1.498,   3.737e-3
1.500,   3.969e-3
1.502,   4.203e-3
1.504,   4.446e-3
1.506,   4.684e-3
1.508,   4.934e-3
1.510,   5.221e-3
1.512,   5.494e-3
1.514,   5.763e-3
1.516,   6.037e-3
1.518,   6.329e-3
1.520,   6.623e-3
1.522,   6.954e-3
1.524,   7.266e-3
1.526,   7.568e-3
1.528,   7.884e-3
1.530,   8.268e-3
1.532,   8.636e-3
1.534,   8.988e-3
1.536,   9.326e-3
1.538,   9.646e-3
1.540,   1.003e-2
1.542,   1.007e-2
1.544,   1.007e-2
1.546,   1.007e-2
1.548,   1.007e-2
1.550,   1.007e-2