File: Experimental Records and Raw Data/batch2/final500/B2_VARIANCE_500#12_Full-262mV.txt
Jan. 19, 2023   12:08:57
Linear Sweep Voltammetry
File: d:\current work\al_oer\electrochemical test data\batch 2\500\B2_VARIANCE_500#12_Full-262mV.txt
Data Source:  Experiment
Instrument Model:  CHI660E
Header:
Note:

Init E (V) = 1.098

Final E (V) = 1.556

Scan Rate (V/s) = 0.010
Sample Interval (V) = 0.001
Quiet Time (sec) = 2
Sensitivity (A/V) = 0.001
Comp R (ohm) = 6.0

Results:

Channel 1:

Potential/V, Current/A
1.098,   7.147e-5
1.100,   6.708e-5
1.102,   5.998e-5
1.104,   5.438e-5
1.106,   5.003e-5
1.108,   4.653e-5
1.110,   4.369e-5
1.112,   4.138e-5
1.114,   3.942e-5
1.116,   3.792e-5
1.118,   3.661e-5
1.120,   3.542e-5
1.122,   3.436e-5
1.124,   3.353e-5
1.126,   3.281e-5
1.128,   3.214e-5
1.130,   3.153e-5
1.132,   3.117e-5
1.134,   3.064e-5
1.136,   3.028e-5
1.138,   2.996e-5
1.140,   2.972e-5
1.142,   2.948e-5
1.144,   2.922e-5
1.146,   2.903e-5
1.148,   2.891e-5
1.150,   2.881e-5
1.152,   2.860e-5
1.154,   2.856e-5
1.156,   2.850e-5
1.158,   2.844e-5
1.160,   2.837e-5
1.162,   2.833e-5
1.164,   2.841e-5
1.166,   2.839e-5
1.168,   2.833e-5
1.170,   2.843e-5
1.172,   2.842e-5
1.174,   2.848e-5
1.176,   2.849e-5
1.178,   2.851e-5
1.180,   2.863e-5
1.182,   2.871e-5
1.184,   2.873e-5
1.186,   2.880e-5
1.188,   2.893e-5
1.190,   2.901e-5
1.192,   2.909e-5
1.194,   2.914e-5
1.196,   2.930e-5
1.198,   2.944e-5
1.200,   2.945e-5
1.202,   2.962e-5
1.204,   2.975e-5
1.206,   2.983e-5
1.208,   2.998e-5
1.210,   3.000e-5
1.212,   3.017e-5
1.214,   3.026e-5
1.216,   3.032e-5
1.218,   3.053e-5
1.220,   3.065e-5
1.222,   3.079e-5
1.224,   3.081e-5
1.226,   3.092e-5
1.228,   3.111e-5
1.230,   3.123e-5
1.232,   3.128e-5
1.234,   3.144e-5
1.236,   3.163e-5
1.238,   3.172e-5
1.240,   3.177e-5
1.242,   3.188e-5
1.244,   3.202e-5
1.246,   3.213e-5
1.248,   3.221e-5
1.250,   3.230e-5
1.252,   3.242e-5
1.254,   3.255e-5
1.256,   3.263e-5
1.258,   3.271e-5
1.260,   3.290e-5
1.262,   3.293e-5
1.264,   3.294e-5
1.266,   3.304e-5
1.268,   3.319e-5
1.270,   3.326e-5
1.272,   3.336e-5
1.274,   3.339e-5
1.276,   3.352e-5
1.278,   3.360e-5
1.280,   3.364e-5
1.282,   3.378e-5
1.284,   3.385e-5
1.286,   3.393e-5
1.288,   3.396e-5
1.290,   3.411e-5
1.292,   3.421e-5
1.294,   3.426e-5
1.296,   3.427e-5
1.298,   3.439e-5
1.300,   3.449e-5
1.302,   3.458e-5
1.304,   3.466e-5
1.306,   3.470e-5
1.308,   3.490e-5
1.310,   3.499e-5
1.312,   3.505e-5
1.314,   3.514e-5
1.316,   3.525e-5
1.318,   3.541e-5
1.320,   3.543e-5
1.322,   3.554e-5
1.324,   3.585e-5
1.326,   3.592e-5
1.328,   3.596e-5
1.330,   3.609e-5
1.332,   3.630e-5
1.334,   3.644e-5
1.336,   3.663e-5
1.338,   3.673e-5
1.340,   3.694e-5
1.342,   3.712e-5
1.344,   3.728e-5
1.346,   3.744e-5
1.348,   3.767e-5
1.350,   3.784e-5
1.352,   3.806e-5
1.354,   3.830e-5
1.356,   3.869e-5
1.358,   3.897e-5
1.360,   3.924e-5
1.362,   3.972e-5
1.364,   4.004e-5
1.366,   4.044e-5
1.368,   4.103e-5
1.370,   4.144e-5
1.372,   4.210e-5
1.374,   4.278e-5
1.376,   4.340e-5
1.378,   4.414e-5
1.380,   4.510e-5
1.382,   4.603e-5
1.384,   4.708e-5
1.386,   4.819e-5
1.388,   4.974e-5
1.390,   5.117e-5
1.392,   5.274e-5
1.394,   5.465e-5
1.396,   5.676e-5
1.398,   5.897e-5
1.400,   6.162e-5
1.402,   6.443e-5
1.404,   6.769e-5
1.406,   7.126e-5
1.408,   7.521e-5
1.410,   7.981e-5
1.412,   8.482e-5
1.414,   9.042e-5
1.416,   9.645e-5
1.418,   1.033e-4
1.420,   1.109e-4
1.422,   1.192e-4
1.424,   1.284e-4
1.426,   1.386e-4
1.428,   1.499e-4
1.430,   1.624e-4
1.432,   1.763e-4
1.434,   1.915e-4
1.436,   2.079e-4
1.438,   2.259e-4
1.440,   2.459e-4
1.442,   2.674e-4
1.444,   2.910e-4
1.446,   3.170e-4
1.448,   3.453e-4
1.450,   3.756e-4
1.452,   4.089e-4
1.454,   4.445e-4
1.456,   4.836e-4
1.458,   5.255e-4
1.460,   5.712e-4
1.462,   6.200e-4
1.464,   6.719e-4
1.466,   7.288e-4
1.468,   7.898e-4
1.470,   8.548e-4
1.472,   9.248e-4
1.474,   9.997e-4
1.476,   1.079e-3
1.478,   1.164e-3
1.480,   1.253e-3
1.482,   1.347e-3
1.484,   1.448e-3
1.486,   1.556e-3
1.488,   1.669e-3
1.490,   1.789e-3
1.492,   1.913e-3
1.494,   2.045e-3
1.496,   2.184e-3
1.498,   2.333e-3
1.500,   2.488e-3
1.502,   2.646e-3
1.504,   2.812e-3
1.506,   2.982e-3
1.508,   3.162e-3
1.510,   3.353e-3
1.512,   3.554e-3
1.514,   3.756e-3
1.516,   3.960e-3
1.518,   4.189e-3
1.520,   4.423e-3
1.522,   4.659e-3
1.524,   4.896e-3
1.526,   5.142e-3
1.528,   5.397e-3
1.530,   5.655e-3
1.532,   5.951e-3
1.534,   6.241e-3
1.536,   6.560e-3
1.538,   6.872e-3
1.540,   7.219e-3
1.542,   7.557e-3
1.544,   7.880e-3
1.546,   8.243e-3
1.548,   8.591e-3
1.550,   9.000e-3
1.552,   9.327e-3
1.554,   9.687e-3
1.556,   1.006e-2