File: Experimental Records and Raw Data/batch2/final500/B2_VARIANCE_500#7_Full-293mV.txt
Jan. 18, 2023   15:37:15
Linear Sweep Voltammetry
File: d:\current work\al_oer\electrochemical test data\batch 2\500\B2_VARIANCE_500#7_Full-293mV.txt
Data Source:  Experiment
Instrument Model:  CHI660E
Header:
Note:

Init E (V) = 1.098

Final E (V) = 1.682

Scan Rate (V/s) = 0.010
Sample Interval (V) = 0.001
Quiet Time (sec) = 2
Sensitivity (A/V) = 0.001
Comp R (ohm) = 4.9

Results:

Channel 1:

Potential/V, Current/A
1.098,   4.256e-5
1.100,   3.952e-5
1.102,   3.545e-5
1.104,   3.218e-5
1.106,   2.957e-5
1.108,   2.750e-5
1.110,   2.581e-5
1.112,   2.439e-5
1.114,   2.320e-5
1.116,   2.219e-5
1.118,   2.134e-5
1.120,   2.058e-5
1.122,   1.991e-5
1.124,   1.936e-5
1.126,   1.887e-5
1.128,   1.847e-5
1.130,   1.810e-5
1.132,   1.774e-5
1.134,   1.750e-5
1.136,   1.716e-5
1.138,   1.696e-5
1.140,   1.679e-5
1.142,   1.665e-5
1.144,   1.649e-5
1.146,   1.639e-5
1.148,   1.625e-5
1.150,   1.614e-5
1.152,   1.611e-5
1.154,   1.607e-5
1.156,   1.597e-5
1.158,   1.600e-5
1.160,   1.593e-5
1.162,   1.589e-5
1.164,   1.587e-5
1.166,   1.591e-5
1.168,   1.591e-5
1.170,   1.591e-5
1.172,   1.596e-5
1.174,   1.594e-5
1.176,   1.597e-5
1.178,   1.602e-5
1.180,   1.613e-5
1.182,   1.616e-5
1.184,   1.618e-5
1.186,   1.620e-5
1.188,   1.630e-5
1.190,   1.637e-5
1.192,   1.646e-5
1.194,   1.650e-5
1.196,   1.658e-5
1.198,   1.669e-5
1.200,   1.669e-5
1.202,   1.676e-5
1.204,   1.687e-5
1.206,   1.691e-5
1.208,   1.691e-5
1.210,   1.708e-5
1.212,   1.710e-5
1.214,   1.716e-5
1.216,   1.718e-5
1.218,   1.728e-5
1.220,   1.737e-5
1.222,   1.742e-5
1.224,   1.749e-5
1.226,   1.749e-5
1.228,   1.758e-5
1.230,   1.762e-5
1.232,   1.766e-5
1.234,   1.772e-5
1.236,   1.781e-5
1.238,   1.784e-5
1.240,   1.781e-5
1.242,   1.786e-5
1.244,   1.792e-5
1.246,   1.789e-5
1.248,   1.797e-5
1.250,   1.798e-5
1.252,   1.800e-5
1.254,   1.806e-5
1.256,   1.804e-5
1.258,   1.803e-5
1.260,   1.816e-5
1.262,   1.815e-5
1.264,   1.813e-5
1.266,   1.819e-5
1.268,   1.830e-5
1.270,   1.826e-5
1.272,   1.831e-5
1.274,   1.829e-5
1.276,   1.838e-5
1.278,   1.840e-5
1.280,   1.845e-5
1.282,   1.842e-5
1.284,   1.849e-5
1.286,   1.857e-5
1.288,   1.855e-5
1.290,   1.863e-5
1.292,   1.871e-5
1.294,   1.876e-5
1.296,   1.872e-5
1.298,   1.886e-5
1.300,   1.893e-5
1.302,   1.902e-5
1.304,   1.909e-5
1.306,   1.915e-5
1.308,   1.922e-5
1.310,   1.932e-5
1.312,   1.940e-5
1.314,   1.941e-5
1.316,   1.954e-5
1.318,   1.967e-5
1.320,   1.968e-5
1.322,   1.978e-5
1.324,   2.004e-5
1.326,   2.005e-5
1.328,   2.009e-5
1.330,   2.027e-5
1.332,   2.038e-5
1.334,   2.047e-5
1.336,   2.068e-5
1.338,   2.072e-5
1.340,   2.091e-5
1.342,   2.108e-5
1.344,   2.115e-5
1.346,   2.128e-5
1.348,   2.150e-5
1.350,   2.166e-5
1.352,   2.179e-5
1.354,   2.192e-5
1.356,   2.212e-5
1.358,   2.231e-5
1.360,   2.246e-5
1.362,   2.275e-5
1.364,   2.296e-5
1.366,   2.313e-5
1.368,   2.345e-5
1.370,   2.371e-5
1.372,   2.404e-5
1.374,   2.441e-5
1.376,   2.477e-5
1.378,   2.515e-5
1.380,   2.565e-5
1.382,   2.613e-5
1.384,   2.670e-5
1.386,   2.733e-5
1.388,   2.812e-5
1.390,   2.887e-5
1.392,   2.975e-5
1.394,   3.084e-5
1.396,   3.195e-5
1.398,   3.317e-5
1.400,   3.472e-5
1.402,   3.624e-5
1.404,   3.806e-5
1.406,   4.011e-5
1.408,   4.229e-5
1.410,   4.474e-5
1.412,   4.758e-5
1.414,   5.074e-5
1.416,   5.402e-5
1.418,   5.784e-5
1.420,   6.211e-5
1.422,   6.668e-5
1.424,   7.176e-5
1.426,   7.757e-5
1.428,   8.361e-5
1.430,   9.036e-5
1.432,   9.773e-5
1.434,   1.057e-4
1.436,   1.146e-4
1.438,   1.243e-4
1.440,   1.346e-4
1.442,   1.459e-4
1.444,   1.584e-4
1.446,   1.716e-4
1.448,   1.860e-4
1.450,   2.015e-4
1.452,   2.185e-4
1.454,   2.367e-4
1.456,   2.563e-4
1.458,   2.773e-4
1.460,   2.999e-4
1.462,   3.240e-4
1.464,   3.494e-4
1.466,   3.767e-4
1.468,   4.061e-4
1.470,   4.367e-4
1.472,   4.690e-4
1.474,   5.037e-4
1.476,   5.396e-4
1.478,   5.783e-4
1.480,   6.177e-4
1.482,   6.590e-4
1.484,   7.018e-4
1.486,   7.467e-4
1.488,   7.932e-4
1.490,   8.403e-4
1.492,   8.954e-4
1.494,   9.468e-4
1.496,   1.000e-3
1.498,   1.055e-3
1.500,   1.111e-3
1.502,   1.169e-3
1.504,   1.240e-3
1.506,   1.314e-3
1.508,   1.381e-3
1.510,   1.453e-3
1.512,   1.522e-3
1.514,   1.597e-3
1.516,   1.667e-3
1.518,   1.738e-3
1.520,   1.811e-3
1.522,   1.884e-3
1.524,   1.970e-3
1.526,   2.047e-3
1.528,   2.136e-3
1.530,   2.260e-3
1.532,   2.347e-3
1.534,   2.427e-3
1.536,   2.499e-3
1.538,   2.585e-3
1.540,   2.667e-3
1.542,   2.758e-3
1.544,   2.852e-3
1.546,   2.958e-3
1.548,   3.035e-3
1.550,   3.141e-3
1.552,   3.245e-3
1.554,   3.328e-3
1.556,   3.411e-3
1.558,   3.519e-3
1.560,   3.692e-3
1.562,   3.768e-3
1.564,   3.853e-3
1.566,   4.050e-3
1.568,   4.151e-3
1.570,   4.239e-3
1.572,   4.404e-3
1.574,   4.569e-3
1.576,   4.647e-3
1.578,   4.746e-3
1.580,   4.834e-3
1.582,   4.958e-3
1.584,   5.079e-3
1.586,   5.181e-3
1.588,   5.299e-3
1.590,   5.648e-3
1.592,   5.698e-3
1.594,   5.864e-3
1.596,   5.963e-3
1.598,   6.081e-3
1.600,   6.131e-3
1.602,   6.410e-3
1.604,   6.491e-3
1.606,   6.564e-3
1.608,   6.619e-3
1.610,   6.827e-3
1.612,   6.900e-3
1.614,   6.986e-3
1.616,   7.162e-3
1.618,   7.235e-3
1.620,   7.315e-3
1.622,   7.472e-3
1.624,   7.619e-3
1.626,   7.674e-3
1.628,   7.847e-3
1.630,   7.851e-3
1.632,   8.017e-3
1.634,   8.151e-3
1.636,   8.180e-3
1.638,   8.398e-3
1.640,   8.643e-3
1.642,   8.847e-3
1.644,   8.848e-3
1.646,   8.882e-3
1.648,   8.946e-3
1.650,   9.117e-3
1.652,   9.212e-3
1.654,   9.296e-3
1.656,   9.358e-3
1.658,   9.404e-3
1.660,   9.541e-3
1.662,   9.517e-3
1.664,   9.544e-3
1.666,   9.569e-3
1.668,   9.683e-3
1.670,   9.759e-3
1.672,   9.810e-3
1.674,   1.007e-2
1.676,   1.007e-2
1.678,   1.007e-2
1.680,   1.007e-2
1.682,   1.007e-2