File: Experimental Records and Raw Data/batch2/final500/B2_VARIANCE_500#17_High_Quality-350mV.txt
Jan. 19, 2023   14:07:58
Linear Sweep Voltammetry
File: d:\current work\al_oer\electrochemical test data\batch 2\500\B2_VARIANCE_500#17_High_Quality-350mV.txt
Data Source:  Experiment
Instrument Model:  CHI660E
Header:
Note:

Init E (V) = 1.099

Final E (V) = 1.754

Scan Rate (V/s) = 0.010
Sample Interval (V) = 0.001
Quiet Time (sec) = 2
Sensitivity (A/V) = 0.001
Comp R (ohm) = 5.9

Results:

Channel 1:

Potential/V, Current/A
1.099,   3.813e-5
1.102,   3.346e-5
1.105,   2.880e-5
1.108,   2.549e-5
1.111,   2.304e-5
1.114,   2.119e-5
1.117,   1.969e-5
1.120,   1.856e-5
1.123,   1.759e-5
1.126,   1.684e-5
1.129,   1.620e-5
1.132,   1.568e-5
1.135,   1.524e-5
1.138,   1.487e-5
1.141,   1.454e-5
1.144,   1.430e-5
1.147,   1.405e-5
1.150,   1.387e-5
1.153,   1.373e-5
1.156,   1.363e-5
1.159,   1.353e-5
1.162,   1.346e-5
1.165,   1.343e-5
1.168,   1.335e-5
1.171,   1.334e-5
1.174,   1.330e-5
1.177,   1.330e-5
1.180,   1.333e-5
1.183,   1.339e-5
1.186,   1.339e-5
1.189,   1.346e-5
1.192,   1.349e-5
1.195,   1.353e-5
1.198,   1.359e-5
1.201,   1.364e-5
1.204,   1.373e-5
1.207,   1.382e-5
1.210,   1.391e-5
1.213,   1.400e-5
1.216,   1.409e-5
1.219,   1.418e-5
1.222,   1.432e-5
1.225,   1.443e-5
1.228,   1.453e-5
1.231,   1.468e-5
1.234,   1.479e-5
1.237,   1.495e-5
1.240,   1.505e-5
1.243,   1.517e-5
1.246,   1.534e-5
1.249,   1.548e-5
1.252,   1.561e-5
1.255,   1.577e-5
1.258,   1.595e-5
1.261,   1.611e-5
1.264,   1.625e-5
1.267,   1.640e-5
1.270,   1.651e-5
1.273,   1.675e-5
1.276,   1.689e-5
1.279,   1.705e-5
1.282,   1.724e-5
1.285,   1.738e-5
1.288,   1.757e-5
1.291,   1.773e-5
1.294,   1.790e-5
1.297,   1.811e-5
1.300,   1.830e-5
1.303,   1.850e-5
1.306,   1.868e-5
1.309,   1.887e-5
1.312,   1.914e-5
1.315,   1.929e-5
1.318,   1.951e-5
1.321,   1.973e-5
1.324,   2.000e-5
1.327,   2.024e-5
1.330,   2.049e-5
1.333,   2.069e-5
1.336,   2.095e-5
1.339,   2.122e-5
1.342,   2.144e-5
1.345,   2.170e-5
1.348,   2.200e-5
1.351,   2.233e-5
1.354,   2.262e-5
1.357,   2.292e-5
1.360,   2.324e-5
1.363,   2.358e-5
1.366,   2.389e-5
1.369,   2.422e-5
1.372,   2.458e-5
1.375,   2.495e-5
1.378,   2.532e-5
1.381,   2.570e-5
1.384,   2.611e-5
1.387,   2.654e-5
1.390,   2.697e-5
1.393,   2.739e-5
1.396,   2.786e-5
1.399,   2.841e-5
1.402,   2.894e-5
1.405,   2.955e-5
1.408,   3.025e-5
1.411,   3.098e-5
1.414,   3.185e-5
1.417,   3.284e-5
1.420,   3.396e-5
1.423,   3.524e-5
1.426,   3.665e-5
1.429,   3.819e-5
1.432,   4.012e-5
1.435,   4.226e-5
1.438,   4.476e-5
1.441,   4.771e-5
1.444,   5.103e-5
1.447,   5.478e-5
1.450,   5.915e-5
1.453,   6.409e-5
1.456,   6.968e-5
1.459,   7.604e-5
1.462,   8.321e-5
1.465,   9.123e-5
1.468,   1.002e-4
1.471,   1.103e-4
1.474,   1.215e-4
1.477,   1.339e-4
1.480,   1.476e-4
1.483,   1.629e-4
1.486,   1.803e-4
1.489,   1.988e-4
1.492,   2.192e-4
1.495,   2.415e-4
1.498,   2.654e-4
1.501,   2.912e-4
1.504,   3.200e-4
1.507,   3.500e-4
1.510,   3.828e-4
1.513,   4.181e-4
1.516,   4.554e-4
1.519,   4.962e-4
1.522,   5.388e-4
1.525,   5.838e-4
1.528,   6.319e-4
1.531,   6.829e-4
1.534,   7.363e-4
1.537,   7.938e-4
1.540,   8.530e-4
1.543,   9.148e-4
1.546,   9.804e-4
1.549,   1.050e-3
1.552,   1.121e-3
1.555,   1.195e-3
1.558,   1.272e-3
1.561,   1.354e-3
1.564,   1.438e-3
1.567,   1.526e-3
1.570,   1.616e-3
1.573,   1.710e-3
1.576,   1.808e-3
1.579,   1.910e-3
1.582,   2.015e-3
1.585,   2.123e-3
1.588,   2.233e-3
1.591,   2.352e-3
1.594,   2.470e-3
1.597,   2.592e-3
1.600,   2.716e-3
1.603,   2.846e-3
1.606,   2.977e-3
1.609,   3.119e-3
1.612,   3.266e-3
1.615,   3.409e-3
1.618,   3.565e-3
1.621,   3.709e-3
1.624,   3.868e-3
1.627,   4.023e-3
1.630,   4.188e-3
1.633,   4.357e-3
1.636,   4.530e-3
1.639,   4.701e-3
1.642,   4.885e-3
1.645,   5.070e-3
1.648,   5.253e-3
1.651,   5.436e-3
1.654,   5.633e-3
1.657,   5.820e-3
1.660,   6.012e-3
1.663,   6.213e-3
1.666,   6.414e-3
1.669,   6.613e-3
1.672,   6.828e-3
1.675,   7.037e-3
1.678,   7.240e-3
1.681,   7.455e-3
1.684,   7.668e-3
1.687,   7.871e-3
1.690,   8.074e-3
1.693,   8.291e-3
1.696,   8.502e-3
1.699,   8.723e-3
1.702,   8.924e-3
1.705,   9.128e-3
1.708,   9.344e-3
1.711,   9.543e-3
1.714,   9.756e-3
1.717,   9.961e-3
1.720,   1.006e-2
1.723,   1.006e-2
1.726,   1.006e-2
1.729,   1.006e-2
1.732,   1.006e-2
1.735,   1.006e-2
1.738,   1.006e-2
1.741,   1.006e-2
1.744,   1.006e-2
1.747,   1.006e-2
1.750,   1.006e-2
1.753,   1.006e-2
1.754,   1.006e-2