File: Experimental Records and Raw Data/batch2/final500/B2_VARIANCE_500#14_High_Quality-319mV.txt
Jan. 19, 2023   13:45:58
Linear Sweep Voltammetry
File: d:\current work\al_oer\electrochemical test data\batch 2\500\B2_VARIANCE_500#14_High_Quality-319mV.txt
Data Source:  Experiment
Instrument Model:  CHI660E
Header:
Note:

Init E (V) = 1.098

Final E (V) = 1.697

Scan Rate (V/s) = 0.010
Sample Interval (V) = 0.001
Quiet Time (sec) = 2
Sensitivity (A/V) = 0.001
Comp R (ohm) = 5.4

Results:

Channel 1:

Potential/V, Current/A
1.098,   3.790e-5
1.100,   3.492e-5
1.102,   3.115e-5
1.104,   2.814e-5
1.106,   2.580e-5
1.108,   2.387e-5
1.110,   2.236e-5
1.112,   2.109e-5
1.114,   2.004e-5
1.116,   1.912e-5
1.118,   1.838e-5
1.120,   1.772e-5
1.122,   1.718e-5
1.124,   1.676e-5
1.126,   1.636e-5
1.128,   1.600e-5
1.130,   1.570e-5
1.132,   1.548e-5
1.134,   1.525e-5
1.136,   1.505e-5
1.138,   1.488e-5
1.140,   1.477e-5
1.142,   1.467e-5
1.144,   1.455e-5
1.146,   1.449e-5
1.148,   1.446e-5
1.150,   1.443e-5
1.152,   1.437e-5
1.154,   1.436e-5
1.156,   1.438e-5
1.158,   1.435e-5
1.160,   1.436e-5
1.162,   1.438e-5
1.164,   1.443e-5
1.166,   1.443e-5
1.168,   1.445e-5
1.170,   1.453e-5
1.172,   1.461e-5
1.174,   1.465e-5
1.176,   1.471e-5
1.178,   1.477e-5
1.180,   1.486e-5
1.182,   1.495e-5
1.184,   1.499e-5
1.186,   1.507e-5
1.188,   1.518e-5
1.190,   1.527e-5
1.192,   1.532e-5
1.194,   1.542e-5
1.196,   1.555e-5
1.198,   1.565e-5
1.200,   1.574e-5
1.202,   1.583e-5
1.204,   1.598e-5
1.206,   1.607e-5
1.208,   1.616e-5
1.210,   1.625e-5
1.212,   1.638e-5
1.214,   1.647e-5
1.216,   1.654e-5
1.218,   1.666e-5
1.220,   1.677e-5
1.222,   1.688e-5
1.224,   1.699e-5
1.226,   1.710e-5
1.228,   1.724e-5
1.230,   1.734e-5
1.232,   1.744e-5
1.234,   1.758e-5
1.236,   1.766e-5
1.238,   1.777e-5
1.240,   1.791e-5
1.242,   1.799e-5
1.244,   1.815e-5
1.246,   1.826e-5
1.248,   1.836e-5
1.250,   1.845e-5
1.252,   1.859e-5
1.254,   1.870e-5
1.256,   1.880e-5
1.258,   1.889e-5
1.260,   1.904e-5
1.262,   1.916e-5
1.264,   1.925e-5
1.266,   1.935e-5
1.268,   1.951e-5
1.270,   1.959e-5
1.272,   1.969e-5
1.274,   1.978e-5
1.276,   1.991e-5
1.278,   2.002e-5
1.280,   2.015e-5
1.282,   2.023e-5
1.284,   2.033e-5
1.286,   2.044e-5
1.288,   2.053e-5
1.290,   2.065e-5
1.292,   2.080e-5
1.294,   2.090e-5
1.296,   2.100e-5
1.298,   2.110e-5
1.300,   2.122e-5
1.302,   2.133e-5
1.304,   2.142e-5
1.306,   2.157e-5
1.308,   2.166e-5
1.310,   2.178e-5
1.312,   2.189e-5
1.314,   2.202e-5
1.316,   2.217e-5
1.318,   2.225e-5
1.320,   2.238e-5
1.322,   2.247e-5
1.324,   2.268e-5
1.326,   2.275e-5
1.328,   2.288e-5
1.330,   2.299e-5
1.332,   2.316e-5
1.334,   2.328e-5
1.336,   2.342e-5
1.338,   2.355e-5
1.340,   2.373e-5
1.342,   2.384e-5
1.344,   2.398e-5
1.346,   2.415e-5
1.348,   2.433e-5
1.350,   2.444e-5
1.352,   2.462e-5
1.354,   2.472e-5
1.356,   2.496e-5
1.358,   2.512e-5
1.360,   2.531e-5
1.362,   2.552e-5
1.364,   2.574e-5
1.366,   2.591e-5
1.368,   2.609e-5
1.370,   2.630e-5
1.372,   2.655e-5
1.374,   2.679e-5
1.376,   2.703e-5
1.378,   2.726e-5
1.380,   2.756e-5
1.382,   2.784e-5
1.384,   2.816e-5
1.386,   2.847e-5
1.388,   2.889e-5
1.390,   2.929e-5
1.392,   2.968e-5
1.394,   3.017e-5
1.396,   3.067e-5
1.398,   3.120e-5
1.400,   3.183e-5
1.402,   3.244e-5
1.404,   3.317e-5
1.406,   3.398e-5
1.408,   3.491e-5
1.410,   3.586e-5
1.412,   3.698e-5
1.414,   3.806e-5
1.416,   3.937e-5
1.418,   4.081e-5
1.420,   4.245e-5
1.422,   4.426e-5
1.424,   4.623e-5
1.426,   4.850e-5
1.428,   5.099e-5
1.430,   5.372e-5
1.432,   5.662e-5
1.434,   5.988e-5
1.436,   6.353e-5
1.438,   6.751e-5
1.440,   7.186e-5
1.442,   7.668e-5
1.444,   8.196e-5
1.446,   8.762e-5
1.448,   9.371e-5
1.450,   1.004e-4
1.452,   1.078e-4
1.454,   1.156e-4
1.456,   1.242e-4
1.458,   1.335e-4
1.460,   1.435e-4
1.462,   1.543e-4
1.464,   1.660e-4
1.466,   1.784e-4
1.468,   1.918e-4
1.470,   2.059e-4
1.472,   2.213e-4
1.474,   2.377e-4
1.476,   2.552e-4
1.478,   2.739e-4
1.480,   2.939e-4
1.482,   3.149e-4
1.484,   3.372e-4
1.486,   3.604e-4
1.488,   3.860e-4
1.490,   4.124e-4
1.492,   4.403e-4
1.494,   4.688e-4
1.496,   4.990e-4
1.498,   5.307e-4
1.500,   5.646e-4
1.502,   5.978e-4
1.504,   6.335e-4
1.506,   6.722e-4
1.508,   7.123e-4
1.510,   7.542e-4
1.512,   7.964e-4
1.514,   8.412e-4
1.516,   8.865e-4
1.518,   9.361e-4
1.520,   9.848e-4
1.522,   1.035e-3
1.524,   1.087e-3
1.526,   1.143e-3
1.528,   1.200e-3
1.530,   1.259e-3
1.532,   1.321e-3
1.534,   1.382e-3
1.536,   1.445e-3
1.538,   1.509e-3
1.540,   1.578e-3
1.542,   1.648e-3
1.544,   1.720e-3
1.546,   1.794e-3
1.548,   1.870e-3
1.550,   1.947e-3
1.552,   2.021e-3
1.554,   2.103e-3
1.556,   2.185e-3
1.558,   2.271e-3
1.560,   2.361e-3
1.562,   2.448e-3
1.564,   2.537e-3
1.566,   2.629e-3
1.568,   2.732e-3
1.570,   2.828e-3
1.572,   2.926e-3
1.574,   3.028e-3
1.576,   3.132e-3
1.578,   3.234e-3
1.580,   3.341e-3
1.582,   3.450e-3
1.584,   3.553e-3
1.586,   3.662e-3
1.588,   3.772e-3
1.590,   3.884e-3
1.592,   4.000e-3
1.594,   4.121e-3
1.596,   4.243e-3
1.598,   4.361e-3
1.600,   4.491e-3
1.602,   4.607e-3
1.604,   4.733e-3
1.606,   4.860e-3
1.608,   4.990e-3
1.610,   5.120e-3
1.612,   5.251e-3
1.614,   5.371e-3
1.616,   5.498e-3
1.618,   5.649e-3
1.620,   5.781e-3
1.622,   5.923e-3
1.624,   6.062e-3
1.626,   6.201e-3
1.628,   6.319e-3
1.630,   6.446e-3
1.632,   6.600e-3
1.634,   6.746e-3
1.636,   6.906e-3
1.638,   7.166e-3
1.640,   7.314e-3
1.642,   7.454e-3
1.644,   7.602e-3
1.646,   7.780e-3
1.648,   7.923e-3
1.650,   8.070e-3
1.652,   8.227e-3
1.654,   8.354e-3
1.656,   8.527e-3
1.658,   8.684e-3
1.660,   8.815e-3
1.662,   8.956e-3
1.664,   9.083e-3
1.666,   9.269e-3
1.668,   9.435e-3
1.670,   9.609e-3
1.672,   9.770e-3
1.674,   9.896e-3
1.676,   1.002e-2
1.678,   1.006e-2
1.680,   1.006e-2
1.682,   1.006e-2
1.684,   1.006e-2
1.686,   1.006e-2
1.688,   1.006e-2
1.690,   1.006e-2
1.692,   1.006e-2
1.694,   1.006e-2
1.696,   1.006e-2
1.697,   1.006e-2