File: Experimental Records, Raw Data, and Supplementary Notes and Figures/batch1/final500/B1_BEST_500_#9_Full-343mV.txt
Dec. 14, 2022   15:41:48
Linear Sweep Voltammetry
File: d:\current work\al_oer\electrochemical test data\batch 1\500\B1_BEST_500_#9_Full-343mV.txt
Data Source:  Experiment
Instrument Model:  CHI660E
Header:
Note:

Init E (V) = 1.116

Final E (V) = 1.815

Scan Rate (V/s) = 0.010
Sample Interval (V) = 0.001
Quiet Time (sec) = 2
Sensitivity (A/V) = 0.001
Comp R (ohm) = 5.2

Results:

Channel 1:

Potential/V, Current/A
1.116,   3.268e-5
1.119,   2.795e-5
1.122,   2.381e-5
1.125,   2.091e-5
1.128,   1.869e-5
1.131,   1.703e-5
1.134,   1.571e-5
1.137,   1.466e-5
1.140,   1.378e-5
1.143,   1.312e-5
1.146,   1.254e-5
1.149,   1.208e-5
1.152,   1.165e-5
1.155,   1.130e-5
1.158,   1.106e-5
1.161,   1.079e-5
1.164,   1.060e-5
1.167,   1.045e-5
1.170,   1.034e-5
1.173,   1.019e-5
1.176,   1.015e-5
1.179,   1.011e-5
1.182,   1.008e-5
1.185,   1.000e-5
1.188,   9.973e-6
1.191,   9.955e-6
1.194,   9.994e-6
1.197,   1.003e-5
1.200,   1.009e-5
1.203,   1.013e-5
1.206,   1.015e-5
1.209,   1.022e-5
1.212,   1.025e-5
1.215,   1.032e-5
1.218,   1.039e-5
1.221,   1.049e-5
1.224,   1.056e-5
1.227,   1.068e-5
1.230,   1.072e-5
1.233,   1.082e-5
1.236,   1.091e-5
1.239,   1.095e-5
1.242,   1.105e-5
1.245,   1.112e-5
1.248,   1.120e-5
1.251,   1.130e-5
1.254,   1.134e-5
1.257,   1.139e-5
1.260,   1.144e-5
1.263,   1.153e-5
1.266,   1.157e-5
1.269,   1.164e-5
1.272,   1.171e-5
1.275,   1.176e-5
1.278,   1.180e-5
1.281,   1.187e-5
1.284,   1.189e-5
1.287,   1.195e-5
1.290,   1.200e-5
1.293,   1.206e-5
1.296,   1.209e-5
1.299,   1.218e-5
1.302,   1.223e-5
1.305,   1.226e-5
1.308,   1.234e-5
1.311,   1.240e-5
1.314,   1.245e-5
1.317,   1.254e-5
1.320,   1.263e-5
1.323,   1.268e-5
1.326,   1.277e-5
1.329,   1.287e-5
1.332,   1.295e-5
1.335,   1.307e-5
1.338,   1.313e-5
1.341,   1.326e-5
1.344,   1.339e-5
1.347,   1.352e-5
1.350,   1.360e-5
1.353,   1.372e-5
1.356,   1.382e-5
1.359,   1.396e-5
1.362,   1.409e-5
1.365,   1.428e-5
1.368,   1.439e-5
1.371,   1.461e-5
1.374,   1.469e-5
1.377,   1.487e-5
1.380,   1.506e-5
1.383,   1.523e-5
1.386,   1.549e-5
1.389,   1.574e-5
1.392,   1.603e-5
1.395,   1.635e-5
1.398,   1.669e-5
1.401,   1.710e-5
1.404,   1.756e-5
1.407,   1.815e-5
1.410,   1.874e-5
1.413,   1.956e-5
1.416,   2.047e-5
1.419,   2.152e-5
1.422,   2.281e-5
1.425,   2.425e-5
1.428,   2.599e-5
1.431,   2.804e-5
1.434,   3.036e-5
1.437,   3.314e-5
1.440,   3.639e-5
1.443,   3.997e-5
1.446,   4.429e-5
1.449,   4.927e-5
1.452,   5.498e-5
1.455,   6.141e-5
1.458,   6.892e-5
1.461,   7.755e-5
1.464,   8.723e-5
1.467,   9.819e-5
1.470,   1.106e-4
1.473,   1.246e-4
1.476,   1.403e-4
1.479,   1.581e-4
1.482,   1.779e-4
1.485,   1.999e-4
1.488,   2.244e-4
1.491,   2.518e-4
1.494,   2.819e-4
1.497,   3.152e-4
1.500,   3.518e-4
1.503,   3.917e-4
1.506,   4.352e-4
1.509,   4.826e-4
1.512,   5.330e-4
1.515,   5.868e-4
1.518,   6.438e-4
1.521,   7.041e-4
1.524,   7.669e-4
1.527,   8.322e-4
1.530,   9.001e-4
1.533,   9.689e-4
1.536,   1.040e-3
1.539,   1.112e-3
1.542,   1.185e-3
1.545,   1.259e-3
1.548,   1.333e-3
1.551,   1.406e-3
1.554,   1.480e-3
1.557,   1.554e-3
1.560,   1.627e-3
1.563,   1.700e-3
1.566,   1.772e-3
1.569,   1.843e-3
1.572,   1.914e-3
1.575,   1.988e-3
1.578,   2.062e-3
1.581,   2.132e-3
1.584,   2.205e-3
1.587,   2.276e-3
1.590,   2.350e-3
1.593,   2.422e-3
1.596,   2.493e-3
1.599,   2.564e-3
1.602,   2.632e-3
1.605,   2.704e-3
1.608,   2.769e-3
1.611,   2.839e-3
1.614,   2.906e-3
1.617,   2.975e-3
1.620,   3.045e-3
1.623,   3.106e-3
1.626,   3.169e-3
1.629,   3.241e-3
1.632,   3.299e-3
1.635,   3.357e-3
1.638,   3.426e-3
1.641,   3.487e-3
1.644,   3.535e-3
1.647,   3.600e-3
1.650,   3.660e-3
1.653,   3.704e-3
1.656,   3.758e-3
1.659,   3.801e-3
1.662,   3.844e-3
1.665,   3.901e-3
1.668,   3.970e-3
1.671,   4.005e-3
1.674,   4.034e-3
1.677,   4.076e-3
1.680,   4.106e-3
1.683,   4.131e-3
1.686,   4.153e-3
1.689,   4.180e-3
1.692,   4.199e-3
1.695,   4.218e-3
1.698,   4.230e-3
1.701,   4.249e-3
1.704,   4.260e-3
1.707,   4.260e-3
1.710,   4.268e-3
1.713,   4.277e-3
1.716,   4.271e-3
1.719,   4.276e-3
1.722,   4.271e-3
1.725,   4.263e-3
1.728,   4.252e-3
1.731,   4.245e-3
1.734,   4.233e-3
1.737,   4.213e-3
1.740,   4.192e-3
1.743,   4.178e-3
1.746,   4.157e-3
1.749,   4.135e-3
1.752,   4.116e-3
1.755,   4.088e-3
1.758,   4.068e-3
1.761,   4.047e-3
1.764,   4.020e-3
1.767,   3.992e-3
1.770,   3.966e-3
1.773,   3.935e-3
1.776,   3.905e-3
1.779,   3.879e-3
1.782,   3.847e-3
1.785,   3.814e-3
1.788,   3.788e-3
1.791,   3.756e-3
1.794,   3.730e-3
1.797,   3.697e-3
1.800,   3.666e-3
1.803,   3.634e-3
1.806,   3.605e-3
1.809,   3.572e-3
1.812,   3.543e-3
1.815,   3.513e-3