File: Experimental Records, Raw Data, and Supplementary Notes and Figures/batch1/final500/B1_BEST_500_#8_High_Quality-218mV.txt
Dec. 12, 2022   16:10:45
Linear Sweep Voltammetry
File: d:\current work\al_oer\electrochemical test data\batch 1\500\B1_BEST_500_#8_High_Quality-218mV.txt
Data Source:  Experiment
Instrument Model:  CHI660E
Header:
Note:

Init E (V) = 1.092

Final E (V) = 1.524

Scan Rate (V/s) = 0.010
Sample Interval (V) = 0.001
Quiet Time (sec) = 2
Sensitivity (A/V) = 0.001
Comp R (ohm) = 5.9

Results:

Channel 1:

Potential/V, Current/A
1.092,   1.908e-4
1.094,   1.758e-4
1.096,   1.578e-4
1.098,   1.425e-4
1.100,   1.308e-4
1.102,   1.212e-4
1.104,   1.134e-4
1.106,   1.065e-4
1.108,   1.004e-4
1.110,   9.566e-5
1.112,   9.155e-5
1.114,   8.733e-5
1.116,   8.445e-5
1.118,   8.116e-5
1.120,   7.878e-5
1.122,   7.612e-5
1.124,   7.369e-5
1.126,   7.173e-5
1.128,   6.977e-5
1.130,   6.796e-5
1.132,   6.646e-5
1.134,   6.516e-5
1.136,   6.401e-5
1.138,   6.291e-5
1.140,   6.203e-5
1.142,   6.111e-5
1.144,   6.019e-5
1.146,   5.942e-5
1.148,   5.874e-5
1.150,   5.822e-5
1.152,   5.770e-5
1.154,   5.706e-5
1.156,   5.665e-5
1.158,   5.637e-5
1.160,   5.598e-5
1.162,   5.560e-5
1.164,   5.530e-5
1.166,   5.509e-5
1.168,   5.486e-5
1.170,   5.464e-5
1.172,   5.443e-5
1.174,   5.456e-5
1.176,   5.438e-5
1.178,   5.425e-5
1.180,   5.405e-5
1.182,   5.407e-5
1.184,   5.397e-5
1.186,   5.383e-5
1.188,   5.378e-5
1.190,   5.401e-5
1.192,   5.385e-5
1.194,   5.384e-5
1.196,   5.396e-5
1.198,   5.389e-5
1.200,   5.388e-5
1.202,   5.399e-5
1.204,   5.390e-5
1.206,   5.414e-5
1.208,   5.401e-5
1.210,   5.459e-5
1.212,   5.431e-5
1.214,   5.436e-5
1.216,   5.453e-5
1.218,   5.445e-5
1.220,   5.446e-5
1.222,   5.464e-5
1.224,   5.432e-5
1.226,   5.448e-5
1.228,   5.468e-5
1.230,   5.479e-5
1.232,   5.467e-5
1.234,   5.477e-5
1.236,   5.473e-5
1.238,   5.489e-5
1.240,   5.503e-5
1.242,   5.490e-5
1.244,   5.499e-5
1.246,   5.513e-5
1.248,   5.543e-5
1.250,   5.527e-5
1.252,   5.527e-5
1.254,   5.572e-5
1.256,   5.558e-5
1.258,   5.555e-5
1.260,   5.606e-5
1.262,   5.616e-5
1.264,   5.601e-5
1.266,   5.592e-5
1.268,   5.573e-5
1.270,   5.619e-5
1.272,   5.644e-5
1.274,   5.672e-5
1.276,   5.675e-5
1.278,   5.698e-5
1.280,   5.681e-5
1.282,   5.723e-5
1.284,   5.732e-5
1.286,   5.796e-5
1.288,   5.745e-5
1.290,   5.762e-5
1.292,   5.720e-5
1.294,   5.752e-5
1.296,   5.777e-5
1.298,   5.759e-5
1.300,   5.776e-5
1.302,   5.846e-5
1.304,   5.934e-5
1.306,   5.952e-5
1.308,   5.921e-5
1.310,   5.875e-5
1.312,   5.903e-5
1.314,   6.017e-5
1.316,   6.057e-5
1.318,   6.036e-5
1.320,   6.003e-5
1.322,   6.016e-5
1.324,   6.157e-5
1.326,   6.192e-5
1.328,   6.137e-5
1.330,   6.217e-5
1.332,   6.343e-5
1.334,   6.262e-5
1.336,   6.402e-5
1.338,   6.444e-5
1.340,   6.471e-5
1.342,   6.579e-5
1.344,   6.634e-5
1.346,   6.609e-5
1.348,   6.846e-5
1.350,   6.892e-5
1.352,   6.942e-5
1.354,   7.032e-5
1.356,   7.195e-5
1.358,   7.338e-5
1.360,   7.462e-5
1.362,   7.601e-5
1.364,   7.874e-5
1.366,   8.016e-5
1.368,   8.299e-5
1.370,   8.537e-5
1.372,   8.763e-5
1.374,   9.386e-5
1.376,   9.545e-5
1.378,   9.833e-5
1.380,   1.038e-4
1.382,   1.105e-4
1.384,   1.203e-4
1.386,   1.289e-4
1.388,   1.353e-4
1.390,   1.449e-4
1.392,   1.610e-4
1.394,   1.752e-4
1.396,   1.883e-4
1.398,   2.028e-4
1.400,   2.253e-4
1.402,   2.458e-4
1.404,   2.725e-4
1.406,   2.986e-4
1.408,   3.294e-4
1.410,   3.628e-4
1.412,   3.992e-4
1.414,   4.422e-4
1.416,   4.847e-4
1.418,   5.375e-4
1.420,   5.881e-4
1.422,   6.430e-4
1.424,   7.061e-4
1.426,   7.734e-4
1.428,   8.495e-4
1.430,   9.276e-4
1.432,   1.006e-3
1.434,   1.097e-3
1.436,   1.187e-3
1.438,   1.289e-3
1.440,   1.395e-3
1.442,   1.506e-3
1.444,   1.637e-3
1.446,   1.773e-3
1.448,   1.910e-3
1.450,   2.065e-3
1.452,   2.234e-3
1.454,   2.412e-3
1.456,   2.603e-3
1.458,   2.807e-3
1.460,   3.018e-3
1.462,   3.239e-3
1.464,   3.477e-3
1.466,   3.714e-3
1.468,   3.917e-3
1.470,   4.135e-3
1.472,   4.611e-3
1.474,   4.926e-3
1.476,   5.147e-3
1.478,   5.427e-3
1.480,   5.761e-3
1.482,   6.092e-3
1.484,   6.487e-3
1.486,   6.831e-3
1.488,   7.149e-3
1.490,   7.599e-3
1.492,   8.170e-3
1.494,   8.444e-3
1.496,   8.690e-3
1.498,   9.350e-3
1.500,   1.003e-2
1.502,   1.006e-2
1.504,   1.006e-2
1.506,   1.006e-2
1.508,   1.006e-2
1.510,   1.006e-2
1.512,   1.006e-2
1.514,   1.006e-2
1.516,   1.006e-2
1.518,   1.006e-2
1.520,   1.006e-2
1.522,   1.006e-2
1.524,   1.006e-2