File: Experimental Records, Raw Data, and Supplementary Notes and Figures/batch1/final500/B1_BEST_500_#14_High_Quality-208mV.txt
Dec. 12, 2022   15:48:10
Linear Sweep Voltammetry
File: d:\current work\al_oer\electrochemical test data\batch 1\500\B1_BEST_500_#14_High_Quality-208mV.txt
Data Source:  Experiment
Instrument Model:  CHI660E
Header:
Note:

Init E (V) = 1.090

Final E (V) = 1.473

Scan Rate (V/s) = 0.010
Sample Interval (V) = 0.001
Quiet Time (sec) = 2
Sensitivity (A/V) = 0.001
Comp R (ohm) = 4.6

Results:

Channel 1:
Ep = 1.036V
ip = 2.322e-5A
Ah = 2.073e-4C

Potential/V, Current/A
1.090,   1.344e-4
1.092,   1.408e-4
1.094,   1.285e-4
1.096,   1.189e-4
1.098,   1.115e-4
1.100,   1.059e-4
1.102,   1.011e-4
1.104,   9.737e-5
1.106,   9.419e-5
1.108,   9.208e-5
1.110,   9.002e-5
1.112,   8.789e-5
1.114,   8.645e-5
1.116,   8.546e-5
1.118,   8.447e-5
1.120,   8.344e-5
1.122,   8.276e-5
1.124,   8.264e-5
1.126,   8.193e-5
1.128,   8.149e-5
1.130,   8.146e-5
1.132,   8.153e-5
1.134,   8.130e-5
1.136,   8.141e-5
1.138,   8.127e-5
1.140,   8.176e-5
1.142,   8.305e-5
1.144,   8.189e-5
1.146,   8.239e-5
1.148,   8.300e-5
1.150,   8.317e-5
1.152,   8.347e-5
1.154,   8.402e-5
1.156,   8.510e-5
1.158,   8.524e-5
1.160,   8.580e-5
1.162,   8.671e-5
1.164,   8.737e-5
1.166,   8.784e-5
1.168,   8.860e-5
1.170,   8.914e-5
1.172,   9.034e-5
1.174,   9.107e-5
1.176,   9.146e-5
1.178,   9.225e-5
1.180,   9.339e-5
1.182,   9.403e-5
1.184,   9.456e-5
1.186,   9.536e-5
1.188,   9.671e-5
1.190,   9.724e-5
1.192,   9.766e-5
1.194,   9.851e-5
1.196,   9.944e-5
1.198,   9.996e-5
1.200,   1.005e-4
1.202,   1.009e-4
1.204,   1.019e-4
1.206,   1.021e-4
1.208,   1.023e-4
1.210,   1.028e-4
1.212,   1.038e-4
1.214,   1.040e-4
1.216,   1.038e-4
1.218,   1.040e-4
1.220,   1.048e-4
1.222,   1.047e-4
1.224,   1.046e-4
1.226,   1.052e-4
1.228,   1.052e-4
1.230,   1.052e-4
1.232,   1.051e-4
1.234,   1.048e-4
1.236,   1.054e-4
1.238,   1.048e-4
1.240,   1.046e-4
1.242,   1.046e-4
1.244,   1.045e-4
1.246,   1.044e-4
1.248,   1.038e-4
1.250,   1.036e-4
1.252,   1.039e-4
1.254,   1.034e-4
1.256,   1.027e-4
1.258,   1.028e-4
1.260,   1.028e-4
1.262,   1.023e-4
1.264,   1.021e-4
1.266,   1.015e-4
1.268,   1.019e-4
1.270,   1.013e-4
1.272,   1.007e-4
1.274,   1.005e-4
1.276,   1.006e-4
1.278,   1.000e-4
1.280,   9.966e-5
1.282,   9.934e-5
1.284,   9.960e-5
1.286,   9.912e-5
1.288,   9.857e-5
1.290,   9.846e-5
1.292,   9.856e-5
1.294,   9.816e-5
1.296,   9.779e-5
1.298,   9.772e-5
1.300,   9.799e-5
1.302,   9.757e-5
1.304,   9.748e-5
1.306,   9.714e-5
1.308,   9.735e-5
1.310,   9.712e-5
1.312,   9.680e-5
1.314,   9.660e-5
1.316,   9.751e-5
1.318,   9.677e-5
1.320,   9.648e-5
1.322,   9.673e-5
1.324,   9.732e-5
1.326,   9.733e-5
1.328,   9.745e-5
1.330,   9.703e-5
1.332,   9.748e-5
1.334,   9.763e-5
1.336,   9.766e-5
1.338,   9.792e-5
1.340,   9.820e-5
1.342,   9.867e-5
1.344,   9.883e-5
1.346,   9.940e-5
1.348,   1.003e-4
1.350,   1.007e-4
1.352,   1.011e-4
1.354,   1.025e-4
1.356,   1.030e-4
1.358,   1.042e-4
1.360,   1.053e-4
1.362,   1.063e-4
1.364,   1.085e-4
1.366,   1.104e-4
1.368,   1.121e-4
1.370,   1.147e-4
1.372,   1.180e-4
1.374,   1.212e-4
1.376,   1.249e-4
1.378,   1.295e-4
1.380,   1.355e-4
1.382,   1.415e-4
1.384,   1.481e-4
1.386,   1.569e-4
1.388,   1.667e-4
1.390,   1.777e-4
1.392,   1.906e-4
1.394,   2.051e-4
1.396,   2.225e-4
1.398,   2.421e-4
1.400,   2.641e-4
1.402,   2.894e-4
1.404,   3.189e-4
1.406,   3.513e-4
1.408,   3.883e-4
1.410,   4.298e-4
1.412,   4.774e-4
1.414,   5.300e-4
1.416,   5.887e-4
1.418,   6.563e-4
1.420,   7.292e-4
1.422,   8.109e-4
1.424,   9.025e-4
1.426,   1.004e-3
1.428,   1.118e-3
1.430,   1.245e-3
1.432,   1.385e-3
1.434,   1.541e-3
1.436,   1.717e-3
1.438,   1.909e-3
1.440,   2.124e-3
1.442,   2.366e-3
1.444,   2.629e-3
1.446,   2.922e-3
1.448,   3.248e-3
1.450,   3.607e-3
1.452,   3.989e-3
1.454,   4.408e-3
1.456,   4.912e-3
1.458,   5.423e-3
1.460,   5.953e-3
1.462,   6.540e-3
1.464,   7.138e-3
1.466,   7.885e-3
1.468,   8.632e-3
1.470,   9.412e-3
1.472,   1.005e-2
1.473,   1.006e-2