File: Experimental Records, Raw Data, and Supplementary Notes and Figures/batch1/final500/B1_VARIANCE_500_#19_Full-318mV.txt
Dec. 14, 2022   15:30:19
Linear Sweep Voltammetry
File: d:\current work\al_oer\electrochemical test data\batch 1\500\B1_VARIANCE_500_#19_Full-318mV.txt
Data Source:  Experiment
Instrument Model:  CHI660E
Header:
Note:

Init E (V) = 1.127

Final E (V) = 1.673

Scan Rate (V/s) = 0.010
Sample Interval (V) = 0.001
Quiet Time (sec) = 2
Sensitivity (A/V) = 0.001
Comp R (ohm) = 5.3

Results:

Channel 1:

Potential/V, Current/A
1.127,   3.533e-5
1.129,   3.416e-5
1.131,   3.089e-5
1.133,   2.828e-5
1.135,   2.632e-5
1.137,   2.470e-5
1.139,   2.326e-5
1.141,   2.210e-5
1.143,   2.110e-5
1.145,   2.032e-5
1.147,   1.962e-5
1.149,   1.897e-5
1.151,   1.840e-5
1.153,   1.801e-5
1.155,   1.756e-5
1.157,   1.720e-5
1.159,   1.688e-5
1.161,   1.665e-5
1.163,   1.642e-5
1.165,   1.622e-5
1.167,   1.608e-5
1.169,   1.596e-5
1.171,   1.578e-5
1.173,   1.569e-5
1.175,   1.561e-5
1.177,   1.558e-5
1.179,   1.555e-5
1.181,   1.551e-5
1.183,   1.547e-5
1.185,   1.548e-5
1.187,   1.551e-5
1.189,   1.555e-5
1.191,   1.556e-5
1.193,   1.565e-5
1.195,   1.572e-5
1.197,   1.573e-5
1.199,   1.582e-5
1.201,   1.592e-5
1.203,   1.600e-5
1.205,   1.608e-5
1.207,   1.614e-5
1.209,   1.628e-5
1.211,   1.636e-5
1.213,   1.642e-5
1.215,   1.653e-5
1.217,   1.665e-5
1.219,   1.674e-5
1.221,   1.681e-5
1.223,   1.691e-5
1.225,   1.709e-5
1.227,   1.711e-5
1.229,   1.728e-5
1.231,   1.736e-5
1.233,   1.751e-5
1.235,   1.761e-5
1.237,   1.776e-5
1.239,   1.784e-5
1.241,   1.798e-5
1.243,   1.806e-5
1.245,   1.813e-5
1.247,   1.821e-5
1.249,   1.837e-5
1.251,   1.849e-5
1.253,   1.857e-5
1.255,   1.860e-5
1.257,   1.878e-5
1.259,   1.889e-5
1.261,   1.890e-5
1.263,   1.902e-5
1.265,   1.913e-5
1.267,   1.918e-5
1.269,   1.929e-5
1.271,   1.932e-5
1.273,   1.945e-5
1.275,   1.949e-5
1.277,   1.950e-5
1.279,   1.957e-5
1.281,   1.972e-5
1.283,   1.974e-5
1.285,   1.977e-5
1.287,   1.982e-5
1.289,   1.994e-5
1.291,   1.993e-5
1.293,   1.994e-5
1.295,   2.006e-5
1.297,   2.011e-5
1.299,   2.013e-5
1.301,   2.017e-5
1.303,   2.015e-5
1.305,   2.023e-5
1.307,   2.023e-5
1.309,   2.027e-5
1.311,   2.030e-5
1.313,   2.037e-5
1.315,   2.041e-5
1.317,   2.039e-5
1.319,   2.043e-5
1.321,   2.053e-5
1.323,   2.052e-5
1.325,   2.052e-5
1.327,   2.061e-5
1.329,   2.069e-5
1.331,   2.066e-5
1.333,   2.067e-5
1.335,   2.072e-5
1.337,   2.077e-5
1.339,   2.082e-5
1.341,   2.086e-5
1.343,   2.086e-5
1.345,   2.095e-5
1.347,   2.100e-5
1.349,   2.105e-5
1.351,   2.106e-5
1.353,   2.123e-5
1.355,   2.123e-5
1.357,   2.124e-5
1.359,   2.134e-5
1.361,   2.145e-5
1.363,   2.151e-5
1.365,   2.157e-5
1.367,   2.162e-5
1.369,   2.175e-5
1.371,   2.179e-5
1.373,   2.184e-5
1.375,   2.197e-5
1.377,   2.217e-5
1.379,   2.221e-5
1.381,   2.229e-5
1.383,   2.236e-5
1.385,   2.255e-5
1.387,   2.265e-5
1.389,   2.284e-5
1.391,   2.301e-5
1.393,   2.317e-5
1.395,   2.334e-5
1.397,   2.353e-5
1.399,   2.372e-5
1.401,   2.404e-5
1.403,   2.431e-5
1.405,   2.459e-5
1.407,   2.494e-5
1.409,   2.536e-5
1.411,   2.580e-5
1.413,   2.623e-5
1.415,   2.673e-5
1.417,   2.737e-5
1.419,   2.801e-5
1.421,   2.869e-5
1.423,   2.952e-5
1.425,   3.042e-5
1.427,   3.147e-5
1.429,   3.261e-5
1.431,   3.381e-5
1.433,   3.532e-5
1.435,   3.686e-5
1.437,   3.851e-5
1.439,   4.044e-5
1.441,   4.270e-5
1.443,   4.521e-5
1.445,   4.798e-5
1.447,   5.098e-5
1.449,   5.450e-5
1.451,   5.823e-5
1.453,   6.246e-5
1.455,   6.714e-5
1.457,   7.234e-5
1.459,   7.813e-5
1.461,   8.441e-5
1.463,   9.125e-5
1.465,   9.891e-5
1.467,   1.073e-4
1.469,   1.163e-4
1.471,   1.264e-4
1.473,   1.373e-4
1.475,   1.493e-4
1.477,   1.624e-4
1.479,   1.764e-4
1.481,   1.920e-4
1.483,   2.086e-4
1.485,   2.266e-4
1.487,   2.466e-4
1.489,   2.679e-4
1.491,   2.910e-4
1.493,   3.158e-4
1.495,   3.427e-4
1.497,   3.713e-4
1.499,   4.024e-4
1.501,   4.355e-4
1.503,   4.710e-4
1.505,   5.091e-4
1.507,   5.495e-4
1.509,   5.924e-4
1.511,   6.378e-4
1.513,   6.858e-4
1.515,   7.363e-4
1.517,   7.890e-4
1.519,   8.445e-4
1.521,   9.032e-4
1.523,   9.636e-4
1.525,   1.027e-3
1.527,   1.093e-3
1.529,   1.161e-3
1.531,   1.233e-3
1.533,   1.306e-3
1.535,   1.381e-3
1.537,   1.458e-3
1.539,   1.538e-3
1.541,   1.619e-3
1.543,   1.701e-3
1.545,   1.786e-3
1.547,   1.872e-3
1.549,   1.960e-3
1.551,   2.050e-3
1.553,   2.140e-3
1.555,   2.235e-3
1.557,   2.331e-3
1.559,   2.427e-3
1.561,   2.528e-3
1.563,   2.627e-3
1.565,   2.727e-3
1.567,   2.834e-3
1.569,   2.944e-3
1.571,   3.048e-3
1.573,   3.155e-3
1.575,   3.267e-3
1.577,   3.382e-3
1.579,   3.502e-3
1.581,   3.622e-3
1.583,   3.737e-3
1.585,   3.856e-3
1.587,   4.004e-3
1.589,   4.139e-3
1.591,   4.271e-3
1.593,   4.398e-3
1.595,   4.546e-3
1.597,   4.685e-3
1.599,   4.822e-3
1.601,   4.957e-3
1.603,   5.099e-3
1.605,   5.238e-3
1.607,   5.388e-3
1.609,   5.527e-3
1.611,   5.673e-3
1.613,   5.819e-3
1.615,   5.968e-3
1.617,   6.119e-3
1.619,   6.266e-3
1.621,   6.441e-3
1.623,   6.600e-3
1.625,   6.748e-3
1.627,   6.903e-3
1.629,   7.063e-3
1.631,   7.228e-3
1.633,   7.378e-3
1.635,   7.544e-3
1.637,   7.719e-3
1.639,   7.871e-3
1.641,   8.037e-3
1.643,   8.194e-3
1.645,   8.366e-3
1.647,   8.528e-3
1.649,   8.686e-3
1.651,   8.842e-3
1.653,   9.024e-3
1.655,   9.170e-3
1.657,   9.327e-3
1.659,   9.499e-3
1.661,   9.650e-3
1.663,   9.802e-3
1.665,   9.981e-3
1.667,   1.006e-2
1.669,   1.006e-2
1.671,   1.006e-2
1.673,   1.006e-2