File: Experimental Records, Raw Data, and Supplementary Notes and Figures/batch1/final500/B1_VARIANCE_500_#11_Full-242mV.txt
Dec. 12, 2022   16:00:11
Linear Sweep Voltammetry
File: d:\current work\al_oer\electrochemical test data\batch 1\500\B1_VARIANCE_500_#11_Full-242mV.txt
Data Source:  Experiment
Instrument Model:  CHI660E
Header:
Note:

Init E (V) = 1.096

Final E (V) = 1.540

Scan Rate (V/s) = 0.010
Sample Interval (V) = 0.001
Quiet Time (sec) = 2
Sensitivity (A/V) = 0.001
Comp R (ohm) = 5.2

Results:

Channel 1:

Potential/V, Current/A
1.096,   5.209e-5
1.098,   5.351e-5
1.100,   4.890e-5
1.102,   4.518e-5
1.104,   4.228e-5
1.106,   3.998e-5
1.108,   3.805e-5
1.110,   3.665e-5
1.112,   3.534e-5
1.114,   3.430e-5
1.116,   3.340e-5
1.118,   3.261e-5
1.120,   3.186e-5
1.122,   3.134e-5
1.124,   3.086e-5
1.126,   3.039e-5
1.128,   3.004e-5
1.130,   2.986e-5
1.132,   2.959e-5
1.134,   2.930e-5
1.136,   2.919e-5
1.138,   2.904e-5
1.140,   2.897e-5
1.142,   2.885e-5
1.144,   2.878e-5
1.146,   2.882e-5
1.148,   2.875e-5
1.150,   2.875e-5
1.152,   2.876e-5
1.154,   2.887e-5
1.156,   2.893e-5
1.158,   2.894e-5
1.160,   2.897e-5
1.162,   2.916e-5
1.164,   2.927e-5
1.166,   2.930e-5
1.168,   2.952e-5
1.170,   2.966e-5
1.172,   2.983e-5
1.174,   2.994e-5
1.176,   3.003e-5
1.178,   3.026e-5
1.180,   3.046e-5
1.182,   3.054e-5
1.184,   3.072e-5
1.186,   3.093e-5
1.188,   3.114e-5
1.190,   3.125e-5
1.192,   3.146e-5
1.194,   3.171e-5
1.196,   3.186e-5
1.198,   3.202e-5
1.200,   3.219e-5
1.202,   3.240e-5
1.204,   3.260e-5
1.206,   3.276e-5
1.208,   3.283e-5
1.210,   3.302e-5
1.212,   3.321e-5
1.214,   3.328e-5
1.216,   3.341e-5
1.218,   3.361e-5
1.220,   3.373e-5
1.222,   3.386e-5
1.224,   3.388e-5
1.226,   3.412e-5
1.228,   3.421e-5
1.230,   3.418e-5
1.232,   3.441e-5
1.234,   3.442e-5
1.236,   3.454e-5
1.238,   3.452e-5
1.240,   3.452e-5
1.242,   3.467e-5
1.244,   3.470e-5
1.246,   3.471e-5
1.248,   3.466e-5
1.250,   3.483e-5
1.252,   3.485e-5
1.254,   3.480e-5
1.256,   3.476e-5
1.258,   3.492e-5
1.260,   3.493e-5
1.262,   3.486e-5
1.264,   3.488e-5
1.266,   3.488e-5
1.268,   3.493e-5
1.270,   3.499e-5
1.272,   3.487e-5
1.274,   3.494e-5
1.276,   3.496e-5
1.278,   3.491e-5
1.280,   3.494e-5
1.282,   3.502e-5
1.284,   3.511e-5
1.286,   3.509e-5
1.288,   3.501e-5
1.290,   3.515e-5
1.292,   3.516e-5
1.294,   3.510e-5
1.296,   3.517e-5
1.298,   3.524e-5
1.300,   3.528e-5
1.302,   3.527e-5
1.304,   3.526e-5
1.306,   3.540e-5
1.308,   3.548e-5
1.310,   3.546e-5
1.312,   3.553e-5
1.314,   3.565e-5
1.316,   3.573e-5
1.318,   3.574e-5
1.320,   3.581e-5
1.322,   3.617e-5
1.324,   3.615e-5
1.326,   3.615e-5
1.328,   3.628e-5
1.330,   3.643e-5
1.332,   3.657e-5
1.334,   3.670e-5
1.336,   3.678e-5
1.338,   3.706e-5
1.340,   3.718e-5
1.342,   3.732e-5
1.344,   3.746e-5
1.346,   3.767e-5
1.348,   3.794e-5
1.350,   3.812e-5
1.352,   3.835e-5
1.354,   3.877e-5
1.356,   3.904e-5
1.358,   3.939e-5
1.360,   3.997e-5
1.362,   4.030e-5
1.364,   4.081e-5
1.366,   4.135e-5
1.368,   4.186e-5
1.370,   4.273e-5
1.372,   4.354e-5
1.374,   4.437e-5
1.376,   4.541e-5
1.378,   4.681e-5
1.380,   4.819e-5
1.382,   4.971e-5
1.384,   5.152e-5
1.386,   5.385e-5
1.388,   5.615e-5
1.390,   5.884e-5
1.392,   6.205e-5
1.394,   6.577e-5
1.396,   7.001e-5
1.398,   7.492e-5
1.400,   8.046e-5
1.402,   8.691e-5
1.404,   9.407e-5
1.406,   1.021e-4
1.408,   1.113e-4
1.410,   1.217e-4
1.412,   1.334e-4
1.414,   1.463e-4
1.416,   1.608e-4
1.418,   1.772e-4
1.420,   1.949e-4
1.422,   2.145e-4
1.424,   2.365e-4
1.426,   2.606e-4
1.428,   2.870e-4
1.430,   3.159e-4
1.432,   3.475e-4
1.434,   3.820e-4
1.436,   4.197e-4
1.438,   4.607e-4
1.440,   5.050e-4
1.442,   5.531e-4
1.444,   6.053e-4
1.446,   6.614e-4
1.448,   7.221e-4
1.450,   7.875e-4
1.452,   8.577e-4
1.454,   9.330e-4
1.456,   1.014e-3
1.458,   1.100e-3
1.460,   1.193e-3
1.462,   1.291e-3
1.464,   1.396e-3
1.466,   1.507e-3
1.468,   1.626e-3
1.470,   1.750e-3
1.472,   1.882e-3
1.474,   2.021e-3
1.476,   2.168e-3
1.478,   2.321e-3
1.480,   2.482e-3
1.482,   2.651e-3
1.484,   2.827e-3
1.486,   3.010e-3
1.488,   3.201e-3
1.490,   3.399e-3
1.492,   3.604e-3
1.494,   3.815e-3
1.496,   4.037e-3
1.498,   4.265e-3
1.500,   4.496e-3
1.502,   4.732e-3
1.504,   4.969e-3
1.506,   5.212e-3
1.508,   5.459e-3
1.510,   5.717e-3
1.512,   5.975e-3
1.514,   6.247e-3
1.516,   6.508e-3
1.518,   6.786e-3
1.520,   7.085e-3
1.522,   7.360e-3
1.524,   7.636e-3
1.526,   7.948e-3
1.528,   8.210e-3
1.530,   8.485e-3
1.532,   8.840e-3
1.534,   9.141e-3
1.536,   9.468e-3
1.538,   9.781e-3
1.540,   1.006e-2