File: Experimental Records, Raw Data, and Supplementary Notes and Figures/batch1/final500/B1_VARIANCE_500_#22_Full-269mV.txt
Dec. 14, 2022   14:54:40
Linear Sweep Voltammetry
File: d:\current work\al_oer\electrochemical test data\batch 1\500\B1_VARIANCE_500_#22_Full-269mV.txt
Data Source:  Experiment
Instrument Model:  CHI660E
Header:
Note:

Init E (V) = 1.106

Final E (V) = 1.644

Scan Rate (V/s) = 0.010
Sample Interval (V) = 0.001
Quiet Time (sec) = 2
Sensitivity (A/V) = 0.001
Comp R (ohm) = 5.9

Results:

Channel 1:
Ep = 1.399V
ip = 8.415e-3A
Ah = 1.301e-1C

Potential/V, Current/A
1.106,   1.524e-4
1.108,   1.336e-4
1.110,   1.170e-4
1.112,   1.039e-4
1.114,   9.363e-5
1.116,   8.515e-5
1.118,   7.814e-5
1.120,   7.224e-5
1.122,   6.733e-5
1.124,   6.315e-5
1.126,   5.954e-5
1.128,   5.634e-5
1.130,   5.370e-5
1.132,   5.136e-5
1.134,   4.921e-5
1.136,   4.728e-5
1.138,   4.562e-5
1.140,   4.425e-5
1.142,   4.298e-5
1.144,   4.180e-5
1.146,   4.071e-5
1.148,   3.982e-5
1.150,   3.898e-5
1.152,   3.820e-5
1.154,   3.754e-5
1.156,   3.700e-5
1.158,   3.645e-5
1.160,   3.587e-5
1.162,   3.540e-5
1.164,   3.496e-5
1.166,   3.462e-5
1.168,   3.429e-5
1.170,   3.394e-5
1.172,   3.366e-5
1.174,   3.338e-5
1.176,   3.314e-5
1.178,   3.295e-5
1.180,   3.282e-5
1.182,   3.263e-5
1.184,   3.251e-5
1.186,   3.233e-5
1.188,   3.230e-5
1.190,   3.217e-5
1.192,   3.207e-5
1.194,   3.200e-5
1.196,   3.197e-5
1.198,   3.195e-5
1.200,   3.188e-5
1.202,   3.183e-5
1.204,   3.181e-5
1.206,   3.183e-5
1.208,   3.179e-5
1.210,   3.174e-5
1.212,   3.178e-5
1.214,   3.179e-5
1.216,   3.178e-5
1.218,   3.173e-5
1.220,   3.182e-5
1.222,   3.183e-5
1.224,   3.182e-5
1.226,   3.187e-5
1.228,   3.193e-5
1.230,   3.202e-5
1.232,   3.201e-5
1.234,   3.204e-5
1.236,   3.209e-5
1.238,   3.209e-5
1.240,   3.210e-5
1.242,   3.220e-5
1.244,   3.226e-5
1.246,   3.229e-5
1.248,   3.236e-5
1.250,   3.241e-5
1.252,   3.248e-5
1.254,   3.252e-5
1.256,   3.256e-5
1.258,   3.260e-5
1.260,   3.263e-5
1.262,   3.274e-5
1.264,   3.275e-5
1.266,   3.276e-5
1.268,   3.286e-5
1.270,   3.294e-5
1.272,   3.293e-5
1.274,   3.301e-5
1.276,   3.306e-5
1.278,   3.316e-5
1.280,   3.320e-5
1.282,   3.323e-5
1.284,   3.334e-5
1.286,   3.338e-5
1.288,   3.341e-5
1.290,   3.343e-5
1.292,   3.351e-5
1.294,   3.360e-5
1.296,   3.359e-5
1.298,   3.360e-5
1.300,   3.374e-5
1.302,   3.375e-5
1.304,   3.373e-5
1.306,   3.381e-5
1.308,   3.384e-5
1.310,   3.392e-5
1.312,   3.393e-5
1.314,   3.395e-5
1.316,   3.409e-5
1.318,   3.413e-5
1.320,   3.407e-5
1.322,   3.420e-5
1.324,   3.428e-5
1.326,   3.439e-5
1.328,   3.438e-5
1.330,   3.445e-5
1.332,   3.467e-5
1.334,   3.468e-5
1.336,   3.465e-5
1.338,   3.476e-5
1.340,   3.486e-5
1.342,   3.501e-5
1.344,   3.514e-5
1.346,   3.522e-5
1.348,   3.538e-5
1.350,   3.549e-5
1.352,   3.566e-5
1.354,   3.578e-5
1.356,   3.601e-5
1.358,   3.615e-5
1.360,   3.638e-5
1.362,   3.655e-5
1.364,   3.685e-5
1.366,   3.700e-5
1.368,   3.718e-5
1.370,   3.750e-5
1.372,   3.780e-5
1.374,   3.805e-5
1.376,   3.845e-5
1.378,   3.880e-5
1.380,   3.935e-5
1.382,   3.988e-5
1.384,   4.053e-5
1.386,   4.114e-5
1.388,   4.194e-5
1.390,   4.285e-5
1.392,   4.376e-5
1.394,   4.497e-5
1.396,   4.642e-5
1.398,   4.793e-5
1.400,   4.970e-5
1.402,   5.181e-5
1.404,   5.430e-5
1.406,   5.697e-5
1.408,   6.011e-5
1.410,   6.379e-5
1.412,   6.798e-5
1.414,   7.273e-5
1.416,   7.811e-5
1.418,   8.417e-5
1.420,   9.088e-5
1.422,   9.853e-5
1.424,   1.069e-4
1.426,   1.163e-4
1.428,   1.265e-4
1.430,   1.383e-4
1.432,   1.508e-4
1.434,   1.648e-4
1.436,   1.797e-4
1.438,   1.959e-4
1.440,   2.134e-4
1.442,   2.330e-4
1.444,   2.538e-4
1.446,   2.761e-4
1.448,   3.002e-4
1.450,   3.260e-4
1.452,   3.541e-4
1.454,   3.839e-4
1.456,   4.160e-4
1.458,   4.504e-4
1.460,   4.875e-4
1.462,   5.267e-4
1.464,   5.686e-4
1.466,   6.135e-4
1.468,   6.623e-4
1.470,   7.136e-4
1.472,   7.688e-4
1.474,   8.279e-4
1.476,   8.895e-4
1.478,   9.543e-4
1.480,   1.024e-3
1.482,   1.099e-3
1.484,   1.178e-3
1.486,   1.262e-3
1.488,   1.350e-3
1.490,   1.441e-3
1.492,   1.536e-3
1.494,   1.635e-3
1.496,   1.739e-3
1.498,   1.848e-3
1.500,   1.964e-3
1.502,   2.083e-3
1.504,   2.208e-3
1.506,   2.338e-3
1.508,   2.466e-3
1.510,   2.600e-3
1.512,   2.741e-3
1.514,   2.890e-3
1.516,   3.038e-3
1.518,   3.186e-3
1.520,   3.338e-3
1.522,   3.486e-3
1.524,   3.638e-3
1.526,   3.786e-3
1.528,   3.942e-3
1.530,   4.102e-3
1.532,   4.250e-3
1.534,   4.423e-3
1.536,   4.588e-3
1.538,   4.746e-3
1.540,   4.960e-3
1.542,   5.243e-3
1.544,   5.396e-3
1.546,   5.546e-3
1.548,   5.701e-3
1.550,   5.849e-3
1.552,   6.040e-3
1.554,   6.330e-3
1.556,   6.499e-3
1.558,   6.642e-3
1.560,   6.864e-3
1.562,   6.999e-3
1.564,   7.128e-3
1.566,   7.229e-3
1.568,   7.380e-3
1.570,   7.522e-3
1.572,   7.683e-3
1.574,   7.747e-3
1.576,   7.839e-3
1.578,   7.993e-3
1.580,   8.054e-3
1.582,   8.072e-3
1.584,   8.186e-3
1.586,   8.194e-3
1.588,   8.211e-3
1.590,   8.208e-3
1.592,   8.231e-3
1.594,   8.315e-3
1.596,   8.417e-3
1.598,   8.389e-3
1.600,   8.384e-3
1.602,   8.372e-3
1.604,   8.471e-3
1.606,   8.397e-3
1.608,   8.367e-3
1.610,   8.293e-3
1.612,   8.236e-3
1.614,   8.351e-3
1.616,   8.262e-3
1.618,   8.156e-3
1.620,   8.079e-3
1.622,   7.988e-3
1.624,   7.919e-3
1.626,   7.844e-3
1.628,   7.750e-3
1.630,   7.660e-3
1.632,   7.568e-3
1.634,   7.484e-3
1.636,   7.405e-3
1.638,   7.360e-3
1.640,   7.248e-3
1.642,   7.239e-3
1.644,   7.123e-3