File: Experimental Records, Raw Data, and Supplementary Notes and Figures/batch1/final500/B1_VARIANCE_500_#23_Full-380mV.txt
Dec. 14, 2022   16:24:27
Linear Sweep Voltammetry
File: d:\current work\al_oer\electrochemical test data\batch 1\500\B1_VARIANCE_500_#23_Full-380mV.txt
Data Source:  Experiment
Instrument Model:  CHI660E
Header:
Note:

Init E (V) = 1.092

Final E (V) = 1.791

Scan Rate (V/s) = 0.010
Sample Interval (V) = 0.001
Quiet Time (sec) = 2
Sensitivity (A/V) = 0.001
Comp R (ohm) = 5.7

Results:

Channel 1:

Potential/V, Current/A
1.092,   1.021e-4
1.095,   8.394e-5
1.098,   7.154e-5
1.101,   6.267e-5
1.104,   5.561e-5
1.107,   5.064e-5
1.110,   4.607e-5
1.113,   4.227e-5
1.116,   3.972e-5
1.119,   3.685e-5
1.122,   3.494e-5
1.125,   3.367e-5
1.128,   3.252e-5
1.131,   3.166e-5
1.134,   3.040e-5
1.137,   2.916e-5
1.140,   2.836e-5
1.143,   2.762e-5
1.146,   2.699e-5
1.149,   2.612e-5
1.152,   2.580e-5
1.155,   2.586e-5
1.158,   2.539e-5
1.161,   2.476e-5
1.164,   2.434e-5
1.167,   2.401e-5
1.170,   2.392e-5
1.173,   2.344e-5
1.176,   2.325e-5
1.179,   2.310e-5
1.182,   2.307e-5
1.185,   2.303e-5
1.188,   2.292e-5
1.191,   2.275e-5
1.194,   2.264e-5
1.197,   2.253e-5
1.200,   2.271e-5
1.203,   2.266e-5
1.206,   2.254e-5
1.209,   2.269e-5
1.212,   2.269e-5
1.215,   2.260e-5
1.218,   2.276e-5
1.221,   2.294e-5
1.224,   2.277e-5
1.227,   2.286e-5
1.230,   2.300e-5
1.233,   2.309e-5
1.236,   2.318e-5
1.239,   2.325e-5
1.242,   2.336e-5
1.245,   2.338e-5
1.248,   2.336e-5
1.251,   2.355e-5
1.254,   2.369e-5
1.257,   2.384e-5
1.260,   2.390e-5
1.263,   2.392e-5
1.266,   2.395e-5
1.269,   2.400e-5
1.272,   2.404e-5
1.275,   2.421e-5
1.278,   2.435e-5
1.281,   2.440e-5
1.284,   2.452e-5
1.287,   2.462e-5
1.290,   2.470e-5
1.293,   2.488e-5
1.296,   2.487e-5
1.299,   2.492e-5
1.302,   2.501e-5
1.305,   2.516e-5
1.308,   2.518e-5
1.311,   2.529e-5
1.314,   2.537e-5
1.317,   2.569e-5
1.320,   2.587e-5
1.323,   2.579e-5
1.326,   2.588e-5
1.329,   2.613e-5
1.332,   2.621e-5
1.335,   2.640e-5
1.338,   2.652e-5
1.341,   2.656e-5
1.344,   2.688e-5
1.347,   2.698e-5
1.350,   2.708e-5
1.353,   2.715e-5
1.356,   2.725e-5
1.359,   2.753e-5
1.362,   2.790e-5
1.365,   2.824e-5
1.368,   2.868e-5
1.371,   2.898e-5
1.374,   2.950e-5
1.377,   3.027e-5
1.380,   3.100e-5
1.383,   3.180e-5
1.386,   3.287e-5
1.389,   3.414e-5
1.392,   3.580e-5
1.395,   3.750e-5
1.398,   3.939e-5
1.401,   4.165e-5
1.404,   4.418e-5
1.407,   4.714e-5
1.410,   5.047e-5
1.413,   5.415e-5
1.416,   5.800e-5
1.419,   6.231e-5
1.422,   6.694e-5
1.425,   7.180e-5
1.428,   7.740e-5
1.431,   8.349e-5
1.434,   9.003e-5
1.437,   9.726e-5
1.440,   1.053e-4
1.443,   1.142e-4
1.446,   1.238e-4
1.449,   1.344e-4
1.452,   1.458e-4
1.455,   1.581e-4
1.458,   1.713e-4
1.461,   1.852e-4
1.464,   1.997e-4
1.467,   2.153e-4
1.470,   2.315e-4
1.473,   2.484e-4
1.476,   2.658e-4
1.479,   2.840e-4
1.482,   3.027e-4
1.485,   3.223e-4
1.488,   3.424e-4
1.491,   3.631e-4
1.494,   3.839e-4
1.497,   4.059e-4
1.500,   4.279e-4
1.503,   4.505e-4
1.506,   4.738e-4
1.509,   4.972e-4
1.512,   5.215e-4
1.515,   5.460e-4
1.518,   5.715e-4
1.521,   5.980e-4
1.524,   6.247e-4
1.527,   6.519e-4
1.530,   6.800e-4
1.533,   7.097e-4
1.536,   7.405e-4
1.539,   7.719e-4
1.542,   8.037e-4
1.545,   8.392e-4
1.548,   8.734e-4
1.551,   9.092e-4
1.554,   9.459e-4
1.557,   9.850e-4
1.560,   1.027e-3
1.563,   1.064e-3
1.566,   1.107e-3
1.569,   1.148e-3
1.572,   1.193e-3
1.575,   1.241e-3
1.578,   1.293e-3
1.581,   1.348e-3
1.584,   1.397e-3
1.587,   1.451e-3
1.590,   1.507e-3
1.593,   1.565e-3
1.596,   1.622e-3
1.599,   1.683e-3
1.602,   1.748e-3
1.605,   1.814e-3
1.608,   1.881e-3
1.611,   1.952e-3
1.614,   2.023e-3
1.617,   2.098e-3
1.620,   2.168e-3
1.623,   2.246e-3
1.626,   2.325e-3
1.629,   2.409e-3
1.632,   2.504e-3
1.635,   2.592e-3
1.638,   2.677e-3
1.641,   2.756e-3
1.644,   2.844e-3
1.647,   2.935e-3
1.650,   3.023e-3
1.653,   3.120e-3
1.656,   3.205e-3
1.659,   3.297e-3
1.662,   3.381e-3
1.665,   3.487e-3
1.668,   3.560e-3
1.671,   3.658e-3
1.674,   3.751e-3
1.677,   3.818e-3
1.680,   3.963e-3
1.683,   4.186e-3
1.686,   4.263e-3
1.689,   4.340e-3
1.692,   4.416e-3
1.695,   4.496e-3
1.698,   4.584e-3
1.701,   4.664e-3
1.704,   4.706e-3
1.707,   4.776e-3
1.710,   4.852e-3
1.713,   4.878e-3
1.716,   4.989e-3
1.719,   5.084e-3
1.722,   5.116e-3
1.725,   5.164e-3
1.728,   5.167e-3
1.731,   5.253e-3
1.734,   5.277e-3
1.737,   5.342e-3
1.740,   5.347e-3
1.743,   5.404e-3
1.746,   5.413e-3
1.749,   5.476e-3
1.752,   5.477e-3
1.755,   5.511e-3
1.758,   5.549e-3
1.761,   5.568e-3
1.764,   5.597e-3
1.767,   5.581e-3
1.770,   5.616e-3
1.773,   5.610e-3
1.776,   5.648e-3
1.779,   5.673e-3
1.782,   5.675e-3
1.785,   5.688e-3
1.788,   5.665e-3
1.791,   5.671e-3