File: Experimental Records, Raw Data, and Supplementary Notes and Figures/batch1/final500/B1_VARIANCE_500_#18_Full-282mV.txt
Dec. 14, 2022   16:13:35
Linear Sweep Voltammetry
File: d:\current work\al_oer\electrochemical test data\batch 1\500\B1_VARIANCE_500_#18_Full-282mV.txt
Data Source:  Experiment
Instrument Model:  CHI660E
Header:
Note:

Init E (V) = 1.104

Final E (V) = 1.640

Scan Rate (V/s) = 0.010
Sample Interval (V) = 0.001
Quiet Time (sec) = 2
Sensitivity (A/V) = 0.001
Comp R (ohm) = 5.0

Results:

Channel 1:

Potential/V, Current/A
1.104,   1.549e-4
1.106,   1.466e-4
1.108,   1.379e-4
1.110,   1.304e-4
1.112,   1.241e-4
1.114,   1.186e-4
1.116,   1.138e-4
1.118,   1.096e-4
1.120,   1.059e-4
1.122,   1.027e-4
1.124,   9.980e-5
1.126,   9.721e-5
1.128,   9.490e-5
1.130,   9.291e-5
1.132,   9.105e-5
1.134,   8.943e-5
1.136,   8.787e-5
1.138,   8.661e-5
1.140,   8.539e-5
1.142,   8.429e-5
1.144,   8.333e-5
1.146,   8.248e-5
1.148,   8.172e-5
1.150,   8.109e-5
1.152,   8.050e-5
1.154,   7.996e-5
1.156,   7.953e-5
1.158,   7.916e-5
1.160,   7.879e-5
1.162,   7.855e-5
1.164,   7.840e-5
1.166,   7.819e-5
1.168,   7.807e-5
1.170,   7.805e-5
1.172,   7.804e-5
1.174,   7.801e-5
1.176,   7.809e-5
1.178,   7.817e-5
1.180,   7.827e-5
1.182,   7.841e-5
1.184,   7.853e-5
1.186,   7.873e-5
1.188,   7.894e-5
1.190,   7.919e-5
1.192,   7.946e-5
1.194,   7.973e-5
1.196,   8.008e-5
1.198,   8.034e-5
1.200,   8.063e-5
1.202,   8.105e-5
1.204,   8.139e-5
1.206,   8.172e-5
1.208,   8.208e-5
1.210,   8.250e-5
1.212,   8.289e-5
1.214,   8.334e-5
1.216,   8.365e-5
1.218,   8.413e-5
1.220,   8.454e-5
1.222,   8.490e-5
1.224,   8.532e-5
1.226,   8.580e-5
1.228,   8.628e-5
1.230,   8.666e-5
1.232,   8.704e-5
1.234,   8.749e-5
1.236,   8.794e-5
1.238,   8.837e-5
1.240,   8.885e-5
1.242,   8.927e-5
1.244,   8.970e-5
1.246,   9.012e-5
1.248,   9.051e-5
1.250,   9.101e-5
1.252,   9.142e-5
1.254,   9.185e-5
1.256,   9.227e-5
1.258,   9.270e-5
1.260,   9.313e-5
1.262,   9.351e-5
1.264,   9.395e-5
1.266,   9.449e-5
1.268,   9.493e-5
1.270,   9.536e-5
1.272,   9.574e-5
1.274,   9.621e-5
1.276,   9.670e-5
1.278,   9.709e-5
1.280,   9.748e-5
1.282,   9.796e-5
1.284,   9.840e-5
1.286,   9.881e-5
1.288,   9.926e-5
1.290,   9.964e-5
1.292,   1.002e-4
1.294,   1.005e-4
1.296,   1.009e-4
1.298,   1.014e-4
1.300,   1.018e-4
1.302,   1.021e-4
1.304,   1.026e-4
1.306,   1.030e-4
1.308,   1.034e-4
1.310,   1.038e-4
1.312,   1.041e-4
1.314,   1.045e-4
1.316,   1.049e-4
1.318,   1.053e-4
1.320,   1.056e-4
1.322,   1.059e-4
1.324,   1.063e-4
1.326,   1.066e-4
1.328,   1.068e-4
1.330,   1.075e-4
1.332,   1.076e-4
1.334,   1.079e-4
1.336,   1.082e-4
1.338,   1.086e-4
1.340,   1.089e-4
1.342,   1.092e-4
1.344,   1.094e-4
1.346,   1.099e-4
1.348,   1.101e-4
1.350,   1.104e-4
1.352,   1.107e-4
1.354,   1.111e-4
1.356,   1.114e-4
1.358,   1.117e-4
1.360,   1.119e-4
1.362,   1.123e-4
1.364,   1.127e-4
1.366,   1.129e-4
1.368,   1.133e-4
1.370,   1.137e-4
1.372,   1.141e-4
1.374,   1.144e-4
1.376,   1.146e-4
1.378,   1.151e-4
1.380,   1.156e-4
1.382,   1.160e-4
1.384,   1.163e-4
1.386,   1.168e-4
1.388,   1.174e-4
1.390,   1.176e-4
1.392,   1.182e-4
1.394,   1.189e-4
1.396,   1.194e-4
1.398,   1.200e-4
1.400,   1.206e-4
1.402,   1.214e-4
1.404,   1.221e-4
1.406,   1.230e-4
1.408,   1.237e-4
1.410,   1.249e-4
1.412,   1.260e-4
1.414,   1.271e-4
1.416,   1.281e-4
1.418,   1.296e-4
1.420,   1.314e-4
1.422,   1.330e-4
1.424,   1.347e-4
1.426,   1.372e-4
1.428,   1.395e-4
1.430,   1.421e-4
1.432,   1.453e-4
1.434,   1.488e-4
1.436,   1.527e-4
1.438,   1.574e-4
1.440,   1.623e-4
1.442,   1.684e-4
1.444,   1.750e-4
1.446,   1.824e-4
1.448,   1.908e-4
1.450,   2.004e-4
1.452,   2.114e-4
1.454,   2.235e-4
1.456,   2.375e-4
1.458,   2.533e-4
1.460,   2.708e-4
1.462,   2.905e-4
1.464,   3.130e-4
1.466,   3.382e-4
1.468,   3.662e-4
1.470,   3.975e-4
1.472,   4.321e-4
1.474,   4.702e-4
1.476,   5.116e-4
1.478,   5.567e-4
1.480,   6.053e-4
1.482,   6.583e-4
1.484,   7.140e-4
1.486,   7.739e-4
1.488,   8.381e-4
1.490,   9.063e-4
1.492,   9.782e-4
1.494,   1.054e-3
1.496,   1.134e-3
1.498,   1.216e-3
1.500,   1.301e-3
1.502,   1.390e-3
1.504,   1.483e-3
1.506,   1.580e-3
1.508,   1.679e-3
1.510,   1.776e-3
1.512,   1.885e-3
1.514,   1.991e-3
1.516,   2.100e-3
1.518,   2.218e-3
1.520,   2.333e-3
1.522,   2.452e-3
1.524,   2.588e-3
1.526,   2.711e-3
1.528,   2.828e-3
1.530,   2.948e-3
1.532,   3.077e-3
1.534,   3.213e-3
1.536,   3.370e-3
1.538,   3.526e-3
1.540,   3.669e-3
1.542,   3.828e-3
1.544,   3.972e-3
1.546,   4.099e-3
1.548,   4.230e-3
1.550,   4.399e-3
1.552,   4.576e-3
1.554,   4.713e-3
1.556,   4.886e-3
1.558,   5.059e-3
1.560,   5.215e-3
1.562,   5.452e-3
1.564,   5.592e-3
1.566,   5.767e-3
1.568,   6.039e-3
1.570,   6.203e-3
1.572,   6.397e-3
1.574,   6.651e-3
1.576,   6.765e-3
1.578,   7.034e-3
1.580,   7.219e-3
1.582,   7.538e-3
1.584,   7.693e-3
1.586,   7.917e-3
1.588,   8.075e-3
1.590,   8.356e-3
1.592,   8.574e-3
1.594,   8.962e-3
1.596,   9.244e-3
1.598,   9.352e-3
1.600,   9.971e-3
1.602,   1.006e-2
1.604,   1.006e-2
1.606,   1.006e-2
1.608,   1.006e-2
1.610,   1.006e-2
1.612,   1.006e-2
1.614,   1.006e-2
1.616,   1.006e-2
1.618,   1.006e-2
1.620,   1.006e-2
1.622,   1.006e-2
1.624,   1.006e-2
1.626,   1.006e-2
1.628,   1.006e-2
1.630,   1.006e-2
1.632,   1.006e-2
1.634,   1.006e-2
1.636,   1.006e-2
1.638,   1.006e-2
1.640,   1.006e-2