File: Experimental Records, Raw Data, and Supplementary Notes and Figures/batch1/final500/B1_VARIANCE_500_#2_Full-226mV.txt
Dec. 14, 2022   16:02:34
Linear Sweep Voltammetry
File: d:\current work\al_oer\electrochemical test data\batch 1\500\B1_VARIANCE_500_#2_Full-226mV.txt
Data Source:  Experiment
Instrument Model:  CHI660E
Header:
Note:

Init E (V) = 1.096

Final E (V) = 1.547

Scan Rate (V/s) = 0.010
Sample Interval (V) = 0.001
Quiet Time (sec) = 2
Sensitivity (A/V) = 0.001
Comp R (ohm) = 6.5

Results:

Channel 1:

Potential/V, Current/A
1.096,   3.866e-5
1.098,   4.545e-5
1.100,   4.266e-5
1.102,   4.031e-5
1.104,   3.869e-5
1.106,   3.735e-5
1.108,   3.653e-5
1.110,   3.536e-5
1.112,   3.446e-5
1.114,   3.391e-5
1.116,   3.350e-5
1.118,   3.290e-5
1.120,   3.258e-5
1.122,   3.245e-5
1.124,   3.216e-5
1.126,   3.201e-5
1.128,   3.177e-5
1.130,   3.176e-5
1.132,   3.162e-5
1.134,   3.148e-5
1.136,   3.151e-5
1.138,   3.151e-5
1.140,   3.151e-5
1.142,   3.162e-5
1.144,   3.169e-5
1.146,   3.176e-5
1.148,   3.181e-5
1.150,   3.175e-5
1.152,   3.183e-5
1.154,   3.204e-5
1.156,   3.217e-5
1.158,   3.238e-5
1.160,   3.238e-5
1.162,   3.268e-5
1.164,   3.284e-5
1.166,   3.285e-5
1.168,   3.310e-5
1.170,   3.330e-5
1.172,   3.345e-5
1.174,   3.362e-5
1.176,   3.375e-5
1.178,   3.406e-5
1.180,   3.437e-5
1.182,   3.435e-5
1.184,   3.469e-5
1.186,   3.512e-5
1.188,   3.514e-5
1.190,   3.531e-5
1.192,   3.545e-5
1.194,   3.579e-5
1.196,   3.594e-5
1.198,   3.597e-5
1.200,   3.625e-5
1.202,   3.650e-5
1.204,   3.667e-5
1.206,   3.692e-5
1.208,   3.696e-5
1.210,   3.724e-5
1.212,   3.738e-5
1.214,   3.743e-5
1.216,   3.757e-5
1.218,   3.799e-5
1.220,   3.808e-5
1.222,   3.805e-5
1.224,   3.812e-5
1.226,   3.837e-5
1.228,   3.849e-5
1.230,   3.850e-5
1.232,   3.883e-5
1.234,   3.892e-5
1.236,   3.902e-5
1.238,   3.913e-5
1.240,   3.897e-5
1.242,   3.926e-5
1.244,   3.926e-5
1.246,   3.925e-5
1.248,   3.939e-5
1.250,   3.947e-5
1.252,   3.953e-5
1.254,   3.944e-5
1.256,   3.951e-5
1.258,   3.978e-5
1.260,   3.971e-5
1.262,   3.968e-5
1.264,   3.980e-5
1.266,   3.998e-5
1.268,   4.009e-5
1.270,   4.009e-5
1.272,   3.996e-5
1.274,   4.025e-5
1.276,   4.021e-5
1.278,   4.004e-5
1.280,   4.009e-5
1.282,   4.020e-5
1.284,   4.029e-5
1.286,   4.039e-5
1.288,   4.033e-5
1.290,   4.042e-5
1.292,   4.045e-5
1.294,   4.025e-5
1.296,   4.047e-5
1.298,   4.071e-5
1.300,   4.060e-5
1.302,   4.064e-5
1.304,   4.087e-5
1.306,   4.088e-5
1.308,   4.093e-5
1.310,   4.080e-5
1.312,   4.083e-5
1.314,   4.105e-5
1.316,   4.114e-5
1.318,   4.103e-5
1.320,   4.111e-5
1.322,   4.160e-5
1.324,   4.136e-5
1.326,   4.159e-5
1.328,   4.166e-5
1.330,   4.187e-5
1.332,   4.206e-5
1.334,   4.214e-5
1.336,   4.226e-5
1.338,   4.267e-5
1.340,   4.285e-5
1.342,   4.310e-5
1.344,   4.316e-5
1.346,   4.330e-5
1.348,   4.397e-5
1.350,   4.375e-5
1.352,   4.429e-5
1.354,   4.487e-5
1.356,   4.500e-5
1.358,   4.542e-5
1.360,   4.629e-5
1.362,   4.647e-5
1.364,   4.734e-5
1.366,   4.792e-5
1.368,   4.935e-5
1.370,   4.891e-5
1.372,   5.078e-5
1.374,   5.181e-5
1.376,   5.203e-5
1.378,   5.825e-5
1.380,   5.756e-5
1.382,   5.929e-5
1.384,   6.453e-5
1.386,   6.758e-5
1.388,   7.351e-5
1.390,   7.661e-5
1.392,   8.091e-5
1.394,   8.546e-5
1.396,   9.269e-5
1.398,   9.936e-5
1.400,   1.099e-4
1.402,   1.240e-4
1.404,   1.313e-4
1.406,   1.459e-4
1.408,   1.646e-4
1.410,   1.789e-4
1.412,   1.974e-4
1.414,   2.248e-4
1.416,   2.454e-4
1.418,   2.717e-4
1.420,   3.040e-4
1.422,   3.368e-4
1.424,   3.744e-4
1.426,   4.222e-4
1.428,   4.650e-4
1.430,   5.189e-4
1.432,   5.710e-4
1.434,   6.315e-4
1.436,   6.980e-4
1.438,   7.713e-4
1.440,   8.526e-4
1.442,   9.435e-4
1.444,   1.039e-3
1.446,   1.144e-3
1.448,   1.265e-3
1.450,   1.392e-3
1.452,   1.530e-3
1.454,   1.677e-3
1.456,   1.847e-3
1.458,   2.035e-3
1.460,   2.235e-3
1.462,   2.482e-3
1.464,   2.746e-3
1.466,   3.029e-3
1.468,   3.356e-3
1.470,   3.701e-3
1.472,   4.075e-3
1.474,   4.483e-3
1.476,   4.923e-3
1.478,   5.379e-3
1.480,   5.862e-3
1.482,   6.352e-3
1.484,   6.863e-3
1.486,   7.538e-3
1.488,   8.079e-3
1.490,   8.686e-3
1.492,   9.329e-3
1.494,   9.915e-3
1.496,   1.006e-2
1.498,   1.006e-2
1.500,   1.006e-2
1.502,   1.006e-2
1.504,   1.006e-2
1.506,   1.006e-2
1.508,   1.006e-2
1.510,   1.006e-2
1.512,   1.006e-2
1.514,   1.006e-2
1.516,   1.006e-2
1.518,   1.006e-2
1.520,   1.006e-2
1.522,   1.006e-2
1.524,   1.006e-2
1.526,   1.006e-2
1.528,   1.006e-2
1.530,   1.006e-2
1.532,   1.006e-2
1.534,   1.006e-2
1.536,   1.006e-2
1.538,   1.006e-2
1.540,   1.006e-2
1.542,   1.006e-2
1.544,   1.006e-2
1.546,   1.006e-2
1.547,   1.006e-2