File: Experimental Records and Raw Data/batch1/final400/B1_BEST_400_#1_High_Quality-318mV.txt
Dec. 6, 2022   16:09:15
Linear Sweep Voltammetry
File: d:\current work\al_oer\electrochemical test data\batch 1\400\B1_BEST_400_#1_High_Quality-318mV.txt
Data Source:  Experiment
Instrument Model:  CHI660E
Header:
Note:

Init E (V) = 1.090

Final E (V) = 1.619

Scan Rate (V/s) = 0.010
Sample Interval (V) = 0.001
Quiet Time (sec) = 2
Sensitivity (A/V) = 0.001
Comp R (ohm) = 4.7

Results:

Channel 1:

Potential/V, Current/A
1.090,   2.233e-5
1.092,   2.034e-5
1.094,   1.831e-5
1.096,   1.670e-5
1.098,   1.546e-5
1.100,   1.438e-5
1.102,   1.350e-5
1.104,   1.273e-5
1.106,   1.209e-5
1.108,   1.154e-5
1.110,   1.109e-5
1.112,   1.064e-5
1.114,   1.031e-5
1.116,   9.976e-6
1.118,   9.672e-6
1.120,   9.434e-6
1.122,   9.221e-6
1.124,   9.014e-6
1.126,   8.848e-6
1.128,   8.634e-6
1.130,   8.485e-6
1.132,   8.395e-6
1.134,   8.267e-6
1.136,   8.146e-6
1.138,   8.062e-6
1.140,   7.967e-6
1.142,   7.891e-6
1.144,   7.825e-6
1.146,   7.758e-6
1.148,   7.709e-6
1.150,   7.633e-6
1.152,   7.620e-6
1.154,   7.552e-6
1.156,   7.562e-6
1.158,   7.519e-6
1.160,   7.466e-6
1.162,   7.501e-6
1.164,   7.446e-6
1.166,   7.463e-6
1.168,   7.431e-6
1.170,   7.416e-6
1.172,   7.453e-6
1.174,   7.423e-6
1.176,   7.447e-6
1.178,   7.433e-6
1.180,   7.451e-6
1.182,   7.485e-6
1.184,   7.473e-6
1.186,   7.516e-6
1.188,   7.562e-6
1.190,   7.532e-6
1.192,   7.565e-6
1.194,   7.591e-6
1.196,   7.615e-6
1.198,   7.643e-6
1.200,   7.672e-6
1.202,   7.676e-6
1.204,   7.706e-6
1.206,   7.760e-6
1.208,   7.804e-6
1.210,   7.810e-6
1.212,   7.857e-6
1.214,   7.894e-6
1.216,   7.938e-6
1.218,   7.992e-6
1.220,   8.061e-6
1.222,   8.098e-6
1.224,   8.089e-6
1.226,   8.139e-6
1.228,   8.203e-6
1.230,   8.243e-6
1.232,   8.258e-6
1.234,   8.308e-6
1.236,   8.355e-6
1.238,   8.411e-6
1.240,   8.428e-6
1.242,   8.527e-6
1.244,   8.549e-6
1.246,   8.590e-6
1.248,   8.639e-6
1.250,   8.705e-6
1.252,   8.754e-6
1.254,   8.798e-6
1.256,   8.846e-6
1.258,   8.898e-6
1.260,   8.977e-6
1.262,   8.990e-6
1.264,   9.060e-6
1.266,   9.131e-6
1.268,   9.153e-6
1.270,   9.217e-6
1.272,   9.276e-6
1.274,   9.282e-6
1.276,   9.378e-6
1.278,   9.446e-6
1.280,   9.495e-6
1.282,   9.546e-6
1.284,   9.591e-6
1.286,   9.652e-6
1.288,   9.740e-6
1.290,   9.801e-6
1.292,   9.863e-6
1.294,   9.910e-6
1.296,   9.980e-6
1.298,   1.007e-5
1.300,   1.013e-5
1.302,   1.022e-5
1.304,   1.026e-5
1.306,   1.032e-5
1.308,   1.042e-5
1.310,   1.049e-5
1.312,   1.059e-5
1.314,   1.066e-5
1.316,   1.078e-5
1.318,   1.086e-5
1.320,   1.093e-5
1.322,   1.101e-5
1.324,   1.110e-5
1.326,   1.117e-5
1.328,   1.125e-5
1.330,   1.139e-5
1.332,   1.147e-5
1.334,   1.158e-5
1.336,   1.167e-5
1.338,   1.179e-5
1.340,   1.189e-5
1.342,   1.205e-5
1.344,   1.215e-5
1.346,   1.220e-5
1.348,   1.236e-5
1.350,   1.249e-5
1.352,   1.260e-5
1.354,   1.274e-5
1.356,   1.290e-5
1.358,   1.304e-5
1.360,   1.321e-5
1.362,   1.338e-5
1.364,   1.357e-5
1.366,   1.373e-5
1.368,   1.394e-5
1.370,   1.416e-5
1.372,   1.443e-5
1.374,   1.467e-5
1.376,   1.497e-5
1.378,   1.528e-5
1.380,   1.559e-5
1.382,   1.598e-5
1.384,   1.638e-5
1.386,   1.686e-5
1.388,   1.737e-5
1.390,   1.789e-5
1.392,   1.856e-5
1.394,   1.926e-5
1.396,   2.004e-5
1.398,   2.097e-5
1.400,   2.192e-5
1.402,   2.304e-5
1.404,   2.423e-5
1.406,   2.562e-5
1.408,   2.709e-5
1.410,   2.877e-5
1.412,   3.062e-5
1.414,   3.262e-5
1.416,   3.489e-5
1.418,   3.739e-5
1.420,   4.006e-5
1.422,   4.309e-5
1.424,   4.634e-5
1.426,   4.989e-5
1.428,   5.377e-5
1.430,   5.805e-5
1.432,   6.264e-5
1.434,   6.773e-5
1.436,   7.328e-5
1.438,   7.936e-5
1.440,   8.585e-5
1.442,   9.295e-5
1.444,   1.006e-4
1.446,   1.089e-4
1.448,   1.179e-4
1.450,   1.276e-4
1.452,   1.381e-4
1.454,   1.494e-4
1.456,   1.615e-4
1.458,   1.745e-4
1.460,   1.886e-4
1.462,   2.036e-4
1.464,   2.196e-4
1.466,   2.368e-4
1.468,   2.552e-4
1.470,   2.749e-4
1.472,   2.957e-4
1.474,   3.178e-4
1.476,   3.413e-4
1.478,   3.657e-4
1.480,   3.916e-4
1.482,   4.188e-4
1.484,   4.474e-4
1.486,   4.776e-4
1.488,   5.088e-4
1.490,   5.420e-4
1.492,   5.764e-4
1.494,   6.121e-4
1.496,   6.489e-4
1.498,   6.872e-4
1.500,   7.271e-4
1.502,   7.680e-4
1.504,   8.104e-4
1.506,   8.538e-4
1.508,   8.987e-4
1.510,   9.446e-4
1.512,   9.920e-4
1.514,   1.039e-3
1.516,   1.088e-3
1.518,   1.137e-3
1.520,   1.187e-3
1.522,   1.239e-3
1.524,   1.291e-3
1.526,   1.344e-3
1.528,   1.397e-3
1.530,   1.450e-3
1.532,   1.505e-3
1.534,   1.559e-3
1.536,   1.613e-3
1.538,   1.668e-3
1.540,   1.723e-3
1.542,   1.778e-3
1.544,   1.832e-3
1.546,   1.887e-3
1.548,   1.942e-3
1.550,   1.996e-3
1.552,   2.050e-3
1.554,   2.102e-3
1.556,   2.155e-3
1.558,   2.208e-3
1.560,   2.258e-3
1.562,   2.309e-3
1.564,   2.359e-3
1.566,   2.408e-3
1.568,   2.457e-3
1.570,   2.503e-3
1.572,   2.549e-3
1.574,   2.592e-3
1.576,   2.638e-3
1.578,   2.680e-3
1.580,   2.719e-3
1.582,   2.759e-3
1.584,   2.797e-3
1.586,   2.831e-3
1.588,   2.865e-3
1.590,   2.898e-3
1.592,   2.928e-3
1.594,   2.961e-3
1.596,   2.989e-3
1.598,   3.015e-3
1.600,   3.038e-3
1.602,   3.060e-3
1.604,   3.079e-3
1.606,   3.100e-3
1.608,   3.116e-3
1.610,   3.131e-3
1.612,   3.144e-3
1.614,   3.155e-3
1.616,   3.165e-3
1.618,   3.172e-3
1.619,   3.176e-3