File: Experimental Records and Raw Data/batch1/final400/B1_BEST_400_#9_Full-206mV.txt
Dec. 8, 2022   16:53:49
Linear Sweep Voltammetry
File: d:\current work\al_oer\electrochemical test data\batch 1\400\B1_BEST_400_#9_Full-206mV.txt
Data Source:  Experiment
Instrument Model:  CHI660E
Header:
Note:

Init E (V) = 1.091

Final E (V) = 1.475

Scan Rate (V/s) = 0.010
Sample Interval (V) = 0.001
Quiet Time (sec) = 2
Sensitivity (A/V) = 0.001
Comp R (ohm) = 5.9

Results:

Channel 1:

Potential/V, Current/A
1.091,   5.127e-5
1.093,   5.700e-5
1.095,   5.279e-5
1.097,   4.937e-5
1.099,   4.695e-5
1.101,   4.492e-5
1.103,   4.318e-5
1.105,   4.178e-5
1.107,   4.064e-5
1.109,   3.985e-5
1.111,   3.909e-5
1.113,   3.825e-5
1.115,   3.777e-5
1.117,   3.743e-5
1.119,   3.705e-5
1.121,   3.664e-5
1.123,   3.627e-5
1.125,   3.623e-5
1.127,   3.594e-5
1.129,   3.575e-5
1.131,   3.559e-5
1.133,   3.550e-5
1.135,   3.549e-5
1.137,   3.532e-5
1.139,   3.526e-5
1.141,   3.530e-5
1.143,   3.527e-5
1.145,   3.524e-5
1.147,   3.523e-5
1.149,   3.539e-5
1.151,   3.545e-5
1.153,   3.539e-5
1.155,   3.540e-5
1.157,   3.565e-5
1.159,   3.569e-5
1.161,   3.565e-5
1.163,   3.580e-5
1.165,   3.596e-5
1.167,   3.600e-5
1.169,   3.608e-5
1.171,   3.615e-5
1.173,   3.636e-5
1.175,   3.648e-5
1.177,   3.645e-5
1.179,   3.664e-5
1.181,   3.679e-5
1.183,   3.693e-5
1.185,   3.697e-5
1.187,   3.706e-5
1.189,   3.732e-5
1.191,   3.735e-5
1.193,   3.738e-5
1.195,   3.750e-5
1.197,   3.769e-5
1.199,   3.779e-5
1.201,   3.797e-5
1.203,   3.796e-5
1.205,   3.815e-5
1.207,   3.831e-5
1.209,   3.828e-5
1.211,   3.839e-5
1.213,   3.864e-5
1.215,   3.870e-5
1.217,   3.879e-5
1.219,   3.882e-5
1.221,   3.913e-5
1.223,   3.923e-5
1.225,   3.920e-5
1.227,   3.937e-5
1.229,   3.954e-5
1.231,   3.956e-5
1.233,   3.969e-5
1.235,   3.971e-5
1.237,   3.990e-5
1.239,   4.002e-5
1.241,   4.002e-5
1.243,   4.013e-5
1.245,   4.027e-5
1.247,   4.031e-5
1.249,   4.035e-5
1.251,   4.039e-5
1.253,   4.068e-5
1.255,   4.072e-5
1.257,   4.083e-5
1.259,   4.088e-5
1.261,   4.100e-5
1.263,   4.107e-5
1.265,   4.124e-5
1.267,   4.118e-5
1.269,   4.142e-5
1.271,   4.156e-5
1.273,   4.150e-5
1.275,   4.164e-5
1.277,   4.184e-5
1.279,   4.190e-5
1.281,   4.192e-5
1.283,   4.207e-5
1.285,   4.229e-5
1.287,   4.232e-5
1.289,   4.234e-5
1.291,   4.259e-5
1.293,   4.277e-5
1.295,   4.286e-5
1.297,   4.294e-5
1.299,   4.298e-5
1.301,   4.328e-5
1.303,   4.341e-5
1.305,   4.346e-5
1.307,   4.362e-5
1.309,   4.387e-5
1.311,   4.409e-5
1.313,   4.423e-5
1.315,   4.434e-5
1.317,   4.488e-5
1.319,   4.488e-5
1.321,   4.503e-5
1.323,   4.531e-5
1.325,   4.567e-5
1.327,   4.591e-5
1.329,   4.616e-5
1.331,   4.639e-5
1.333,   4.690e-5
1.335,   4.721e-5
1.337,   4.749e-5
1.339,   4.788e-5
1.341,   4.849e-5
1.343,   4.899e-5
1.345,   4.949e-5
1.347,   5.002e-5
1.349,   5.087e-5
1.351,   5.157e-5
1.353,   5.233e-5
1.355,   5.349e-5
1.357,   5.456e-5
1.359,   5.575e-5
1.361,   5.714e-5
1.363,   5.873e-5
1.365,   6.079e-5
1.367,   6.303e-5
1.369,   6.542e-5
1.371,   6.839e-5
1.373,   7.194e-5
1.375,   7.593e-5
1.377,   8.065e-5
1.379,   8.599e-5
1.381,   9.261e-5
1.383,   9.985e-5
1.385,   1.082e-4
1.387,   1.183e-4
1.389,   1.299e-4
1.391,   1.433e-4
1.393,   1.590e-4
1.395,   1.768e-4
1.397,   1.974e-4
1.399,   2.210e-4
1.401,   2.480e-4
1.403,   2.789e-4
1.405,   3.143e-4
1.407,   3.541e-4
1.409,   3.991e-4
1.411,   4.496e-4
1.413,   5.069e-4
1.415,   5.707e-4
1.417,   6.420e-4
1.419,   7.216e-4
1.421,   8.105e-4
1.423,   9.089e-4
1.425,   1.018e-3
1.427,   1.139e-3
1.429,   1.273e-3
1.431,   1.420e-3
1.433,   1.584e-3
1.435,   1.763e-3
1.437,   1.960e-3
1.439,   2.178e-3
1.441,   2.417e-3
1.443,   2.678e-3
1.445,   2.965e-3
1.447,   3.278e-3
1.449,   3.617e-3
1.451,   3.989e-3
1.453,   4.393e-3
1.455,   4.824e-3
1.457,   5.291e-3
1.459,   5.788e-3
1.461,   6.314e-3
1.463,   6.870e-3
1.465,   7.437e-3
1.467,   8.013e-3
1.469,   8.615e-3
1.471,   9.242e-3
1.473,   9.885e-3
1.475,   1.006e-2