File: Experimental Records and Raw Data/batch1/final400/B1_VARIANCE_400_#3_High_Quality-223mV.txt
Dec. 8, 2022   16:59:22
Linear Sweep Voltammetry
File: d:\current work\al_oer\electrochemical test data\batch 1\400\B1_VARIANCE_400_#3_High_Quality-223mV.txt
Data Source:  Experiment
Instrument Model:  CHI660E
Header:
Note:

Init E (V) = 1.103

Final E (V) = 1.502

Scan Rate (V/s) = 0.010
Sample Interval (V) = 0.001
Quiet Time (sec) = 2
Sensitivity (A/V) = 0.001
Comp R (ohm) = 6.2

Results:

Channel 1:

Potential/V, Current/A
1.103,   4.051e-5
1.105,   4.642e-5
1.107,   4.327e-5
1.109,   4.073e-5
1.111,   3.893e-5
1.113,   3.746e-5
1.115,   3.621e-5
1.117,   3.521e-5
1.119,   3.423e-5
1.121,   3.356e-5
1.123,   3.303e-5
1.125,   3.245e-5
1.127,   3.194e-5
1.129,   3.163e-5
1.131,   3.135e-5
1.133,   3.104e-5
1.135,   3.081e-5
1.137,   3.078e-5
1.139,   3.051e-5
1.141,   3.031e-5
1.143,   3.027e-5
1.145,   3.025e-5
1.147,   3.020e-5
1.149,   3.016e-5
1.151,   3.008e-5
1.153,   3.015e-5
1.155,   3.011e-5
1.157,   3.005e-5
1.159,   3.006e-5
1.161,   3.023e-5
1.163,   3.026e-5
1.165,   3.019e-5
1.167,   3.030e-5
1.169,   3.048e-5
1.171,   3.048e-5
1.173,   3.049e-5
1.175,   3.070e-5
1.177,   3.074e-5
1.179,   3.084e-5
1.181,   3.089e-5
1.183,   3.096e-5
1.185,   3.115e-5
1.187,   3.128e-5
1.189,   3.132e-5
1.191,   3.142e-5
1.193,   3.158e-5
1.195,   3.170e-5
1.197,   3.182e-5
1.199,   3.185e-5
1.201,   3.213e-5
1.203,   3.219e-5
1.205,   3.224e-5
1.207,   3.240e-5
1.209,   3.256e-5
1.211,   3.272e-5
1.213,   3.279e-5
1.215,   3.282e-5
1.217,   3.304e-5
1.219,   3.309e-5
1.221,   3.315e-5
1.223,   3.328e-5
1.225,   3.351e-5
1.227,   3.358e-5
1.229,   3.363e-5
1.231,   3.374e-5
1.233,   3.397e-5
1.235,   3.403e-5
1.237,   3.409e-5
1.239,   3.425e-5
1.241,   3.438e-5
1.243,   3.447e-5
1.245,   3.450e-5
1.247,   3.458e-5
1.249,   3.478e-5
1.251,   3.492e-5
1.253,   3.492e-5
1.255,   3.500e-5
1.257,   3.512e-5
1.259,   3.528e-5
1.261,   3.529e-5
1.263,   3.539e-5
1.265,   3.568e-5
1.267,   3.558e-5
1.269,   3.570e-5
1.271,   3.580e-5
1.273,   3.597e-5
1.275,   3.604e-5
1.277,   3.614e-5
1.279,   3.612e-5
1.281,   3.638e-5
1.283,   3.644e-5
1.285,   3.650e-5
1.287,   3.659e-5
1.289,   3.678e-5
1.291,   3.686e-5
1.293,   3.690e-5
1.295,   3.702e-5
1.297,   3.727e-5
1.299,   3.724e-5
1.301,   3.726e-5
1.303,   3.746e-5
1.305,   3.762e-5
1.307,   3.767e-5
1.309,   3.774e-5
1.311,   3.783e-5
1.313,   3.804e-5
1.315,   3.820e-5
1.317,   3.820e-5
1.319,   3.835e-5
1.321,   3.866e-5
1.323,   3.878e-5
1.325,   3.892e-5
1.327,   3.901e-5
1.329,   3.949e-5
1.331,   3.954e-5
1.333,   3.965e-5
1.335,   3.988e-5
1.337,   4.020e-5
1.339,   4.035e-5
1.341,   4.071e-5
1.343,   4.087e-5
1.345,   4.123e-5
1.347,   4.155e-5
1.349,   4.178e-5
1.351,   4.211e-5
1.353,   4.260e-5
1.355,   4.301e-5
1.357,   4.330e-5
1.359,   4.384e-5
1.361,   4.452e-5
1.363,   4.506e-5
1.365,   4.569e-5
1.367,   4.658e-5
1.369,   4.749e-5
1.371,   4.842e-5
1.373,   4.956e-5
1.375,   5.067e-5
1.377,   5.231e-5
1.379,   5.406e-5
1.381,   5.586e-5
1.383,   5.798e-5
1.385,   6.075e-5
1.387,   6.380e-5
1.389,   6.724e-5
1.391,   7.124e-5
1.393,   7.633e-5
1.395,   8.181e-5
1.397,   8.815e-5
1.399,   9.573e-5
1.401,   1.046e-4
1.403,   1.146e-4
1.405,   1.263e-4
1.407,   1.398e-4
1.409,   1.556e-4
1.411,   1.735e-4
1.413,   1.939e-4
1.415,   2.174e-4
1.417,   2.443e-4
1.419,   2.747e-4
1.421,   3.088e-4
1.423,   3.475e-4
1.425,   3.913e-4
1.427,   4.401e-4
1.429,   4.946e-4
1.431,   5.556e-4
1.433,   6.234e-4
1.435,   6.986e-4
1.437,   7.821e-4
1.439,   8.745e-4
1.441,   9.773e-4
1.443,   1.091e-3
1.445,   1.217e-3
1.447,   1.356e-3
1.449,   1.509e-3
1.451,   1.680e-3
1.453,   1.867e-3
1.455,   2.073e-3
1.457,   2.298e-3
1.459,   2.543e-3
1.461,   2.812e-3
1.463,   3.106e-3
1.465,   3.431e-3
1.467,   3.787e-3
1.469,   4.178e-3
1.471,   4.607e-3
1.473,   5.065e-3
1.475,   5.570e-3
1.477,   6.112e-3
1.479,   6.711e-3
1.481,   7.352e-3
1.483,   8.048e-3
1.485,   8.788e-3
1.487,   9.565e-3
1.489,   1.006e-2
1.491,   1.006e-2
1.493,   1.006e-2
1.495,   1.006e-2
1.497,   1.006e-2
1.499,   1.006e-2
1.501,   1.006e-2
1.502,   1.006e-2