File: Experimental Records, Raw Data, and Supplementary Notes and Figures/batch0/Ru-300.txt
Dec. 1, 2022   12:17:53
Linear Sweep Voltammetry
File: d:\current work\al_oer\data retrieve\batch 0\ru-300.txt
Data Source:  Experiment
Instrument Model:  CHI760E
Header:
Note:

Init E (V) = 0.901

Final E (V) = 1.601

Scan Rate (V/s) = 0.010
Sample Interval (V) = 0.001
Quiet Time (sec) = 2
Sensitivity (A/V) = 0.001
Comp R (ohm) = 4.9

Results:

Channel 1:

Potential/V, Current/A

1.098,	6.47E-06
1.101,	0.000005462
1.104,	0.00000472
1.107,	0.000004192
1.11,	0.00000373
1.113,	0.000003368
1.116,	0.000003097
1.119,	0.000002846
1.122,	0.000002661
1.125,	0.000002508
1.128,	0.000002362
1.131,	0.000002241
1.134,	0.000002162
1.137,	0.000002063
1.14,	0.000002008
1.143,	0.000001935
1.146,	0.00000188
1.149,	0.000001817
1.152,	0.000001772
1.155,	0.000001743
1.158,	0.000001712
1.161,	0.000001667
1.164,	0.000001645
1.167,	0.000001633
1.17,	0.000001584
1.173,	0.000001592
1.176,	0.000001546
1.179,	0.000001548
1.182,	0.000001503
1.185,	0.000001524
1.188,	0.000001489
1.191,	0.000001478
1.194,	0.00000149
1.197,	0.000001474
1.2,	0.00000145
1.203,	0.000001454
1.206,	0.000001442
1.209,	0.000001449
1.212,	0.000001468
1.215,	0.000001443
1.218,	0.000001447
1.221,	0.000001433
1.224,	0.000001437
1.227,	0.000001432
1.23,	0.000001447
1.233,	0.000001398
1.236,	0.000001431
1.239,	0.000001434
1.242,	0.000001422
1.245,	0.000001442
1.248,	0.000001444
1.251,	0.000001441
1.254,	0.000001415
1.257,	0.000001433
1.26,	0.000001433
1.263,	0.000001436
1.266,	0.000001448
1.269,	0.000001461
1.272,	0.000001441
1.275,	0.000001449
1.278,	0.000001456
1.281,	0.000001507
1.284,	0.000001484
1.287,	0.000001478
1.29,	0.000001525
1.293,	0.000001496
1.296,	0.000001499
1.299,	0.000001518
1.302,	0.000001518
1.305,	0.000001546
1.308,	0.000001526
1.311,	0.000001537
1.314,	0.000001555
1.317,	0.000001571
1.32,	0.000001582
1.323,	0.000001576
1.326,	0.000001598
1.329,	0.0000016
1.332,	0.000001618
1.335,	0.000001634
1.338,	0.000001645
1.341,	0.000001659
1.344,	0.000001678
1.347,	0.000001698
1.35,	0.000001705
1.353,	0.000001706
1.356,	0.000001708
1.359,	0.000001717
1.362,	0.000001746
1.365,	0.000001757
1.368,	0.000001809
1.371,	0.000001817
1.374,	0.000001832
1.377,	0.000001859
1.38,	0.000001888
1.383,	0.000001889
1.386,	0.000001926
1.389,	0.000001956
1.392,	0.000001978
1.395,	0.000002004
1.398,	0.000002018
1.401,	0.000002034
1.404,	0.000002072
1.407,	0.000002089
1.41,	0.000002118
1.413,	0.000002166
1.416,	0.000002167
1.419,	0.000002221
1.422,	0.000002272
1.425,	0.000002298
1.428,	0.000002376
1.431,	0.00000237
1.434,	0.0000024
1.437,	0.000002441
1.44,	0.000002494
1.443,	0.000002532
1.446,	0.000002575
1.449,	0.000002609
1.452,	0.000002666
1.455,	0.000002752
1.458,	0.000002773
1.461,	0.000002833
1.464,	0.000002899
1.467,	0.000002964
1.47,	0.000003014
1.473,	0.000003055
1.476,	0.000003154
1.479,	0.000003223
1.482,	0.000003272
1.485,	0.000003332
1.488,	0.000003391
1.491,	0.000003458
1.494,	0.000003562
1.497,	0.000003638
1.5,	0.0000037
1.503,	0.000003769
1.506,	0.00000383
1.509,	0.000003922
1.512,	0.000004013
1.515,	0.00000409
1.518,	0.000004175
1.521,	0.000004275
1.524,	0.000004326
1.527,	0.000004448
1.53,	0.00000451
1.533,	0.000004611
1.536,	0.000004699
1.539,	0.00000479
1.542,	0.00000489
1.545,	0.000004982
1.548,	0.000005062
1.551,	0.000005173
1.554,	0.000005261
1.557,	0.000005369
1.56,	0.00000546
1.563,	0.000005595
1.566,	0.000005683
1.569,	0.000005801
1.572,	0.000005907
1.575,	0.000006022
1.578,	0.000006111
1.581,	0.000006257
1.584,	0.000006357
1.587,	0.00000646
1.59,	0.000006556
1.593,	0.000006688
1.596,	0.000006797
1.599,	0.000006925
1.602,	0.000007024
1.605,	0.000007151
1.608,	0.000007285
1.611,	0.000007399
1.614,	0.000007499
1.617,	0.000007642
1.62,	0.000007735
1.623,	0.000007871
1.626,	0.000007982
1.629,	0.000008133
1.632,	0.000008226
1.635,	0.000008326
1.638,	0.000008441
1.641,	0.000008587
1.644,	0.000008717
1.647,	0.000008833
1.65,	0.000008949
1.653,	0.000009075
1.656,	0.000009209
1.659,	0.000009361
1.662,	0.00000949
1.665,	0.000009631
1.668,	0.000009748
1.671,	0.000009893
1.674,	0.00001007
1.677,	0.00001016
1.68,	0.00001031
1.683,	0.00001045
1.686,	0.00001058
1.689,	0.00001073
1.692,	0.00001087
1.695,	0.00001099
1.698,	0.00001114
1.701,	0.00001128
1.704,	0.00001143
1.707,	0.00001158
1.71,	0.00001172
1.713,	0.00001188
1.716,	0.00001205
1.719,	0.00001219
1.722,	0.00001236
1.725,	0.00001252
1.728,	0.00001265
1.731,	0.00001281
1.734,	0.00001298
1.737,	0.00001314
1.74,	0.00001331
1.743,	0.00001345
1.746,	0.00001364
1.749,	0.00001381
1.752,	0.000014
1.755,	0.00001414
1.758,	0.00001435
1.761,	0.00001456
1.764,	0.00001473
1.767,	0.00001492
1.77,	0.00001511
1.773,	0.00001528
1.776,	0.00001547
1.779,	0.00001569
1.782,	0.00001586
1.785,	0.00001607
1.788,	0.00001631
1.791,	0.0000165
1.794,	0.00001668
1.797,	0.00001691