File: Experimental Records, Raw Data, and Supplementary Notes and Figures/batch0/Ru-400.txt
Nov. 28, 2022   17:03:04
Linear Sweep Voltammetry
File: d:\current work\al_oer\data retrieve\batch 0\ru-400.txt
Data Source:  Experiment
Instrument Model:  CHI760E
Header:
Note:

Init E (V) = 1.098

Final E (V) = 1.497

Scan Rate (V/s) = 0.010
Sample Interval (V) = 0.001
Quiet Time (sec) = 2
Sensitivity (A/V) = 0.001
Comp R (ohm) = 4.8

Results:

Channel 1:

Potential/V, Current/A

1.098,	1.02E-04
1.1,	0.0001068
1.102,	0.00009761
1.104,	0.00009045
1.106,	0.00008507
1.108,	0.00008084
1.11,	0.00007706
1.112,	0.00007398
1.114,	0.00007139
1.116,	0.0000694
1.118,	0.00006763
1.12,	0.00006578
1.122,	0.00006449
1.124,	0.00006346
1.126,	0.00006229
1.128,	0.00006128
1.13,	0.00006045
1.132,	0.00006009
1.134,	0.0000592
1.136,	0.00005856
1.138,	0.0000582
1.14,	0.00005796
1.142,	0.0000574
1.144,	0.00005708
1.146,	0.00005672
1.148,	0.00005673
1.15,	0.00005646
1.152,	0.0000561
1.154,	0.00005591
1.156,	0.000056
1.158,	0.00005581
1.16,	0.00005553
1.162,	0.00005538
1.164,	0.0000556
1.166,	0.00005552
1.168,	0.00005527
1.17,	0.00005553
1.172,	0.00005545
1.174,	0.0000554
1.176,	0.00005529
1.178,	0.00005528
1.18,	0.00005554
1.182,	0.00005557
1.184,	0.00005536
1.186,	0.00005551
1.188,	0.0000557
1.19,	0.00005566
1.192,	0.00005548
1.194,	0.00005554
1.196,	0.00005594
1.198,	0.000056
1.2,	0.00005573
1.202,	0.00005586
1.204,	0.00005627
1.206,	0.00005604
1.208,	0.00005611
1.21,	0.0000559
1.212,	0.00005633
1.214,	0.00005628
1.216,	0.00005611
1.218,	0.00005627
1.22,	0.00005646
1.222,	0.00005644
1.224,	0.00005633
1.226,	0.00005628
1.228,	0.00005666
1.23,	0.00005654
1.232,	0.00005642
1.234,	0.00005666
1.236,	0.00005677
1.238,	0.00005669
1.24,	0.00005651
1.242,	0.00005644
1.244,	0.00005673
1.246,	0.00005671
1.248,	0.00005655
1.25,	0.00005657
1.252,	0.00005667
1.254,	0.00005661
1.256,	0.00005656
1.258,	0.00005652
1.26,	0.00005685
1.262,	0.00005674
1.264,	0.00005647
1.266,	0.00005671
1.268,	0.00005679
1.27,	0.00005672
1.272,	0.00005683
1.274,	0.00005671
1.276,	0.00005692
1.278,	0.00005693
1.28,	0.00005673
1.282,	0.00005681
1.284,	0.00005706
1.286,	0.00005707
1.288,	0.000057
1.29,	0.00005694
1.292,	0.00005747
1.294,	0.00005734
1.296,	0.00005727
1.298,	0.00005755
1.3,	0.0000578
1.302,	0.00005777
1.304,	0.00005798
1.306,	0.0000579
1.308,	0.00005839
1.31,	0.00005851
1.312,	0.00005853
1.314,	0.00005876
1.316,	0.00005913
1.318,	0.00005935
1.32,	0.00005934
1.322,	0.00005976
1.324,	0.00006058
1.326,	0.00006064
1.328,	0.00006076
1.33,	0.00006131
1.332,	0.00006186
1.334,	0.00006224
1.336,	0.00006278
1.338,	0.00006307
1.34,	0.0000641
1.342,	0.00006465
1.344,	0.00006515
1.346,	0.00006606
1.348,	0.00006713
1.35,	0.00006798
1.352,	0.00006906
1.354,	0.00007026
1.356,	0.00007193
1.358,	0.0000734
1.36,	0.00007474
1.362,	0.00007714
1.364,	0.00007924
1.366,	0.00008151
1.368,	0.00008415
1.37,	0.00008702
1.372,	0.00009077
1.374,	0.00009458
1.376,	0.00009868
1.378,	0.0001035
1.38,	0.0001092
1.382,	0.0001155
1.384,	0.0001221
1.386,	0.0001301
1.388,	0.0001395
1.39,	0.0001493
1.392,	0.0001605
1.394,	0.0001735
1.396,	0.0001882
1.398,	0.0002043
1.4,	0.0002224
1.402,	0.0002431
1.404,	0.0002664
1.406,	0.0002923
1.408,	0.0003211
1.41,	0.0003538
1.412,	0.0003904
1.414,	0.0004313
1.416,	0.0004762
1.418,	0.0005262
1.42,	0.0005828
1.422,	0.0006451
1.424,	0.0007134
1.426,	0.0007897
1.428,	0.0008755
1.43,	0.0009693
1.432,	0.00107
1.434,	0.001182
1.436,	0.001308
1.438,	0.001443
1.44,	0.001592
1.442,	0.001756
1.444,	0.001933
1.446,	0.00213
1.448,	0.002339
1.45,	0.002571
1.452,	0.002819
1.454,	0.003084
1.456,	0.00337
1.458,	0.003684
1.46,	0.004005
1.462,	0.00435
1.464,	0.004712
1.466,	0.005121
1.468,	0.005534
1.47,	0.005963
1.472,	0.006404
1.474,	0.00689
1.476,	0.007392
1.478,	0.007949
1.48,	0.008434
1.482,	0.009668
1.484,	0.01006
1.486,	0.01006
1.488,	0.01006
1.49,	0.01006
1.492,	0.01006
1.494,	0.01006
1.496,	0.01006
1.497,	0.01006