File: Experimental Records, Raw Data, and Supplementary Notes and Figures/batch0/Ru-500.txt
Nov. 28, 2022   18:52:54
Linear Sweep Voltammetry
File: d:\current work\al_oer\data retrieve\batch 0\ru-500.txt
Data Source:  Experiment
Instrument Model:  CHI760E
Header:
Note:

Init E (V) = 1.098

Final E (V) = 1.497

Scan Rate (V/s) = 0.010
Sample Interval (V) = 0.001
Quiet Time (sec) = 2
Sensitivity (A/V) = 0.001
Comp R (ohm) = 5.3

Results:

Channel 1:

Potential/V, Current/A

1.098,	6.23E-05
1.1,	0.00006448
1.102,	0.00005911
1.104,	0.00005497
1.106,	0.00005179
1.108,	0.00004911
1.11,	0.00004678
1.112,	0.00004484
1.114,	0.00004319
1.116,	0.00004195
1.118,	0.00004083
1.12,	0.0000397
1.122,	0.00003877
1.124,	0.00003814
1.126,	0.00003749
1.128,	0.00003693
1.13,	0.00003634
1.132,	0.0000361
1.134,	0.00003566
1.136,	0.00003523
1.138,	0.00003504
1.14,	0.00003484
1.142,	0.00003462
1.144,	0.00003451
1.146,	0.00003429
1.148,	0.00003429
1.15,	0.00003421
1.152,	0.00003406
1.154,	0.00003419
1.156,	0.0000343
1.158,	0.00003427
1.16,	0.00003433
1.162,	0.00003445
1.164,	0.00003458
1.166,	0.00003464
1.168,	0.00003451
1.17,	0.00003493
1.172,	0.00003502
1.174,	0.0000353
1.176,	0.00003536
1.178,	0.00003549
1.18,	0.00003584
1.182,	0.00003603
1.184,	0.00003608
1.186,	0.00003632
1.188,	0.00003662
1.19,	0.00003675
1.192,	0.0000368
1.194,	0.00003704
1.196,	0.00003754
1.198,	0.00003747
1.2,	0.00003745
1.202,	0.00003763
1.204,	0.00003801
1.206,	0.00003805
1.208,	0.00003824
1.21,	0.00003828
1.212,	0.0000385
1.214,	0.00003862
1.216,	0.00003854
1.218,	0.00003859
1.22,	0.00003882
1.222,	0.00003898
1.224,	0.00003934
1.226,	0.00003893
1.228,	0.0000391
1.23,	0.00003904
1.232,	0.00003887
1.234,	0.00003913
1.236,	0.00003916
1.238,	0.00003899
1.24,	0.00003896
1.242,	0.00003884
1.244,	0.00003892
1.246,	0.00003884
1.248,	0.00003871
1.25,	0.00003875
1.252,	0.00003873
1.254,	0.00003862
1.256,	0.00003849
1.258,	0.00003834
1.26,	0.00003843
1.262,	0.00003835
1.264,	0.0000381
1.266,	0.00003805
1.268,	0.00003814
1.27,	0.00003802
1.272,	0.00003798
1.274,	0.0000377
1.276,	0.00003784
1.278,	0.00003775
1.28,	0.00003754
1.282,	0.00003757
1.284,	0.00003747
1.286,	0.00003752
1.288,	0.00003734
1.29,	0.00003727
1.292,	0.00003741
1.294,	0.0000373
1.296,	0.00003727
1.298,	0.00003733
1.3,	0.00003629
1.302,	0.00003848
1.304,	0.00003634
1.306,	0.00003789
1.308,	0.0000377
1.31,	0.00003672
1.312,	0.0000386
1.314,	0.00003766
1.316,	0.00003699
1.318,	0.00003801
1.32,	0.0000388
1.322,	0.00003887
1.324,	0.00003905
1.326,	0.00003872
1.328,	0.00003848
1.33,	0.00003883
1.332,	0.00003925
1.334,	0.00003992
1.336,	0.00004156
1.338,	0.00004036
1.34,	0.00003962
1.342,	0.00004343
1.344,	0.00003991
1.346,	0.00004344
1.348,	0.00004126
1.35,	0.00004554
1.352,	0.00004272
1.354,	0.00004491
1.356,	0.00004639
1.358,	0.00004688
1.36,	0.00004519
1.362,	0.00004676
1.364,	0.00004931
1.366,	0.00005061
1.368,	0.00005192
1.37,	0.00005361
1.372,	0.00005588
1.374,	0.00005778
1.376,	0.00005933
1.378,	0.00006189
1.38,	0.00006531
1.382,	0.0000683
1.384,	0.00007089
1.386,	0.00007537
1.388,	0.00008039
1.39,	0.00008546
1.392,	0.00009093
1.394,	0.00009742
1.396,	0.0001048
1.398,	0.0001123
1.4,	0.000121
1.402,	0.0001316
1.404,	0.0001424
1.406,	0.0001551
1.408,	0.0001688
1.41,	0.0001834
1.412,	0.0002006
1.414,	0.0002202
1.416,	0.0002423
1.418,	0.0002907
1.42,	0.0003119
1.422,	0.0003425
1.424,	0.0003641
1.426,	0.0004067
1.428,	0.0004484
1.43,	0.0004998
1.432,	0.0005377
1.434,	0.0005905
1.436,	0.0006648
1.438,	0.0007246
1.44,	0.0007909
1.442,	0.0008713
1.444,	0.0009705
1.446,	0.001054
1.448,	0.001161
1.45,	0.001261
1.452,	0.001399
1.454,	0.001543
1.456,	0.001676
1.458,	0.001847
1.46,	0.002027
1.462,	0.00221
1.464,	0.002421
1.466,	0.002688
1.468,	0.002955
1.47,	0.00324
1.472,	0.003538
1.474,	0.003852
1.476,	0.004244
1.478,	0.004612
1.48,	0.004913
1.482,	0.005152
1.484,	0.005545
1.486,	0.005986
1.488,	0.006494
1.49,	0.006904
1.492,	0.007386
1.494,	0.007948
1.496,	0.008605
1.497,	0.008929