File: Experimental Records, Raw Data, and Supplementary Notes and Figures/batch0/Ru-600.txt
Nov. 30, 2022   14:48:41
Linear Sweep Voltammetry
File: d:\current work\al_oer\data retrieve\batch 0\ru-600.txt
Data Source:  Experiment
Instrument Model:  CHI760E
Header:
Note:

Init E (V) = 1.098

Final E (V) = 1.597

Scan Rate (V/s) = 0.010
Sample Interval (V) = 0.001
Quiet Time (sec) = 2
Sensitivity (A/V) = 0.001
Comp R (ohm) = 4.7

Results:

Channel 1:
Ep = 1.294V
ip = 1.001e-2A
Ah = 4.869e-2C

Potential/V, Current/A

1.098,	-2.76E-06
1.1,	6.393E-07
1.102,	0.000001364
1.104,	0.00000194
1.106,	0.000002429
1.108,	0.000002812
1.11,	0.000003155
1.112,	0.000003439
1.114,	0.000003664
1.116,	0.000003932
1.118,	0.000004134
1.12,	0.000004279
1.122,	0.00000449
1.124,	0.000004625
1.126,	0.000004742
1.128,	0.000004875
1.13,	0.00000496
1.132,	0.000005126
1.134,	0.000005194
1.136,	0.000005265
1.138,	0.000005379
1.14,	0.000005521
1.142,	0.000005524
1.144,	0.000005638
1.146,	0.000005714
1.148,	0.000005789
1.15,	0.000005882
1.152,	0.00000591
1.154,	0.000005983
1.156,	0.000006102
1.158,	0.000006161
1.16,	0.000006185
1.162,	0.000006215
1.164,	0.000006314
1.166,	0.00000639
1.168,	0.000006422
1.17,	0.000006505
1.172,	0.000006573
1.174,	0.000006616
1.176,	0.00000664
1.178,	0.000006708
1.18,	0.000006771
1.182,	0.00000682
1.184,	0.00000687
1.186,	0.000006932
1.188,	0.000006986
1.19,	0.000007061
1.192,	0.000007054
1.194,	0.000007133
1.196,	0.000007186
1.198,	0.000007251
1.2,	0.000007279
1.202,	0.000007341
1.204,	0.000007389
1.206,	0.000007422
1.208,	0.000007475
1.21,	0.000007487
1.212,	0.000007573
1.214,	0.00000761
1.216,	0.000007618
1.218,	0.000007665
1.22,	0.000007702
1.222,	0.000007729
1.224,	0.000007752
1.226,	0.000007801
1.228,	0.000007849
1.23,	0.000007884
1.232,	0.000007891
1.234,	0.000007981
1.236,	0.000007987
1.238,	0.00000801
1.24,	0.000008009
1.242,	0.000008051
1.244,	0.000008132
1.246,	0.000008128
1.248,	0.000008154
1.25,	0.00000816
1.252,	0.000008235
1.254,	0.000008244
1.256,	0.000008257
1.258,	0.000008256
1.26,	0.000008365
1.262,	0.000008355
1.264,	0.000008342
1.266,	0.000008386
1.268,	0.000008438
1.27,	0.000008455
1.272,	0.000008497
1.274,	0.000008515
1.276,	0.000008578
1.278,	0.000008599
1.28,	0.000008591
1.282,	0.000008639
1.284,	0.000008688
1.286,	0.000008733
1.288,	0.000008751
1.29,	0.00000879
1.292,	0.000008905
1.294,	0.000008953
1.296,	0.00000894
1.298,	0.000009012
1.3,	0.000009062
1.302,	0.000009089
1.304,	0.000009176
1.306,	0.000009236
1.308,	0.000009318
1.31,	0.000009395
1.312,	0.000009447
1.314,	0.000009539
1.316,	0.000009648
1.318,	0.0000097
1.32,	0.000009793
1.322,	0.000009918
1.324,	0.00001007
1.326,	0.00001015
1.328,	0.00001026
1.33,	0.00001037
1.332,	0.00001052
1.334,	0.00001067
1.336,	0.00001084
1.338,	0.000011
1.34,	0.0000112
1.342,	0.00001143
1.344,	0.00001158
1.346,	0.00001184
1.348,	0.00001216
1.35,	0.00001245
1.352,	0.00001266
1.354,	0.00001306
1.356,	0.00001343
1.358,	0.0000138
1.36,	0.00001422
1.362,	0.00001477
1.364,	0.00001535
1.366,	0.00001596
1.368,	0.00001662
1.37,	0.00001742
1.372,	0.00001832
1.374,	0.00001935
1.376,	0.00002046
1.378,	0.00002177
1.38,	0.00002325
1.382,	0.0000249
1.384,	0.00002682
1.386,	0.0000289
1.388,	0.00003148
1.39,	0.00003428
1.392,	0.00003741
1.394,	0.00004096
1.396,	0.00004518
1.398,	0.00004991
1.4,	0.00005531
1.402,	0.00006142
1.404,	0.00006853
1.406,	0.00007646
1.408,	0.00008542
1.41,	0.00009553
1.412,	0.000107
1.414,	0.00012
1.416,	0.0001344
1.418,	0.0001506
1.42,	0.0001689
1.422,	0.0001892
1.424,	0.0002115
1.426,	0.0002367
1.428,	0.0002646
1.43,	0.0002951
1.432,	0.0003293
1.434,	0.0003662
1.436,	0.0004071
1.438,	0.0004519
1.44,	0.000501
1.442,	0.0005544
1.444,	0.0006134
1.446,	0.0006769
1.448,	0.0007461
1.45,	0.0008266
1.452,	0.0009101
1.454,	0.0009975
1.456,	0.00109
1.458,	0.0012
1.46,	0.00131
1.462,	0.00143
1.464,	0.00156
1.466,	0.00169
1.468,	0.00183
1.47,	0.00199
1.472,	0.00215
1.474,	0.00232
1.476,	0.00249
1.478,	0.00278
1.48,	0.00301
1.482,	0.00324
1.484,	0.00344
1.486,	0.00371
1.488,	0.00394
1.49,	0.00439
1.492,	0.00485
1.494,	0.00515
1.496,	0.00551
1.498,	0.00595
1.5,	0.00635
1.502,	0.00692
1.504,	0.00728
1.506,	0.00782
1.508,	0.00855
1.51,	0.00941
1.512,	0.00969
1.514,	0.01006
1.516,	0.01006
1.518,	0.01006
1.52,	0.01006
1.522,	0.01006
1.524,	0.01006
1.526,	0.01006
1.528,	0.01006
1.53,	0.01006
1.532,	0.01006
1.534,	0.01006
1.536,	0.01006
1.538,	0.01006
1.54,	0.01006
1.542,	0.01006
1.544,	0.01006
1.546,	0.01006
1.548,	0.01006
1.55,	0.01006
1.552,	0.01006
1.554,	0.01006
1.556,	0.01006
1.558,	0.01006
1.56,	0.01006
1.562,	0.01006
1.564,	0.01006
1.566,	0.01006
1.568,	0.01006
1.57,	0.01006
1.572,	0.01006
1.574,	0.01006
1.576,	0.01006
1.578,	0.01006
1.58,	0.01006
1.582,	0.01006
1.584,	0.01006
1.586,	0.01006
1.588,	0.01006
1.59,	0.01006
1.592,	0.01006
1.594,	0.01006
1.596,	0.01006
1.597,	0.01006