File: Experimental Records, Raw Data, and Supplementary Notes and Figures/batch0/Ru-700.txt
Nov. 30, 2022   16:41:40
Linear Sweep Voltammetry
File: d:\current work\al_oer\data retrieve\batch 0\ru-700.txt
Data Source:  Experiment
Instrument Model:  CHI760E
Header:
Note:

Init E (V) = 0.901

Final E (V) = 1.501

Scan Rate (V/s) = 0.010
Sample Interval (V) = 0.001
Quiet Time (sec) = 2
Sensitivity (A/V) = 0.001
Comp R (ohm) = 4.7

Results:

Channel 1:
Ep = 1.351V
ip = 1.003e-2A
Ah = 6.630e-2C

Potential/V, Current/A

1.098,	2.63E-05
1.1,	0.00002781
1.102,	0.00002569
1.104,	0.00002401
1.106,	0.00002278
1.108,	0.00002173
1.11,	0.00002084
1.112,	0.0000201
1.114,	0.00001945
1.116,	0.000019
1.118,	0.0000186
1.12,	0.00001815
1.122,	0.0000179
1.124,	0.00001764
1.126,	0.00001742
1.128,	0.00001722
1.13,	0.00001704
1.132,	0.00001703
1.134,	0.0000169
1.136,	0.00001678
1.138,	0.00001676
1.14,	0.00001679
1.142,	0.00001674
1.144,	0.00001674
1.146,	0.00001676
1.148,	0.00001689
1.15,	0.0000169
1.152,	0.00001692
1.154,	0.00001703
1.156,	0.00001715
1.158,	0.00001726
1.16,	0.00001738
1.162,	0.00001748
1.164,	0.00001774
1.166,	0.00001786
1.168,	0.00001798
1.17,	0.00001823
1.172,	0.00001838
1.174,	0.00001854
1.176,	0.00001869
1.178,	0.00001888
1.18,	0.0000192
1.182,	0.00001936
1.184,	0.00001948
1.186,	0.00001971
1.188,	0.00002
1.19,	0.00002021
1.192,	0.00002034
1.194,	0.00002057
1.196,	0.00002089
1.198,	0.00002101
1.2,	0.00002111
1.202,	0.00002131
1.204,	0.00002158
1.206,	0.00002169
1.208,	0.00002192
1.21,	0.00002198
1.212,	0.00002222
1.214,	0.0000223
1.216,	0.00002238
1.218,	0.00002251
1.22,	0.00002268
1.222,	0.00002273
1.224,	0.00002278
1.226,	0.00002285
1.228,	0.00002298
1.23,	0.00002303
1.232,	0.000023
1.234,	0.00002314
1.236,	0.00002319
1.238,	0.00002315
1.24,	0.00002314
1.242,	0.00002306
1.244,	0.00002323
1.246,	0.00002317
1.248,	0.00002304
1.25,	0.00002306
1.252,	0.00002311
1.254,	0.00002301
1.256,	0.00002291
1.258,	0.00002281
1.26,	0.00002297
1.262,	0.00002282
1.264,	0.00002269
1.266,	0.00002269
1.268,	0.00002271
1.27,	0.00002257
1.272,	0.00002259
1.274,	0.00002243
1.276,	0.0000225
1.278,	0.00002241
1.28,	0.00002223
1.282,	0.00002228
1.284,	0.00002232
1.286,	0.00002222
1.288,	0.00002213
1.29,	0.00002207
1.292,	0.00002225
1.294,	0.0000221
1.296,	0.00002209
1.298,	0.00002215
1.3,	0.00002222
1.302,	0.00002215
1.304,	0.00002219
1.306,	0.00002217
1.308,	0.00002232
1.31,	0.00002244
1.312,	0.00002235
1.314,	0.00002246
1.316,	0.00002261
1.318,	0.00002272
1.32,	0.00002274
1.322,	0.00002284
1.324,	0.00002317
1.326,	0.00002318
1.328,	0.00002327
1.33,	0.00002347
1.332,	0.00002363
1.334,	0.00002379
1.336,	0.00002397
1.338,	0.00002409
1.34,	0.00002438
1.342,	0.00002454
1.344,	0.00002465
1.346,	0.00002485
1.348,	0.00002517
1.35,	0.00002536
1.352,	0.00002554
1.354,	0.00002577
1.356,	0.00002615
1.358,	0.00002636
1.36,	0.00002662
1.362,	0.00002702
1.364,	0.00002731
1.366,	0.00002764
1.368,	0.00002798
1.37,	0.00002838
1.372,	0.00002894
1.374,	0.00002946
1.376,	0.00002984
1.378,	0.00003048
1.38,	0.00003125
1.382,	0.00003194
1.384,	0.00003273
1.386,	0.00003358
1.388,	0.00003478
1.39,	0.00003575
1.392,	0.00003696
1.394,	0.00003821
1.396,	0.00003985
1.398,	0.00004152
1.4,	0.00004341
1.402,	0.00004549
1.404,	0.00004801
1.406,	0.00005057
1.408,	0.00005347
1.41,	0.0000567
1.412,	0.00006049
1.414,	0.00006445
1.416,	0.00006878
1.418,	0.00007365
1.42,	0.00007948
1.422,	0.00008539
1.424,	0.00009186
1.426,	0.00009913
1.428,	0.0001073
1.43,	0.000116
1.432,	0.0001256
1.434,	0.0001361
1.436,	0.0001479
1.438,	0.0001606
1.44,	0.0001745
1.442,	0.0001897
1.444,	0.0002067
1.446,	0.000225
1.448,	0.0002451
1.45,	0.0002671
1.452,	0.0002919
1.454,	0.0003184
1.456,	0.0003473
1.458,	0.0003791
1.46,	0.0004145
1.462,	0.0004528
1.464,	0.0004953
1.466,	0.0005412
1.468,	0.0005925
1.47,	0.0006478
1.472,	0.000708
1.474,	0.000774
1.476,	0.0008471
1.478,	0.0009265
1.48,	0.00101
1.482,	0.00111
1.484,	0.00121
1.486,	0.00132
1.488,	0.00144
1.49,	0.00157
1.492,	0.00172
1.494,	0.00187
1.496,	0.00203
1.498,	0.00221
1.5,	0.0024
1.502,	0.0026
1.504,	0.00281
1.506,	0.00303
1.508,	0.00326
1.51,	0.00352
1.512,	0.00376
1.514,	0.00403
1.516,	0.0043
1.518,	0.00457
1.52,	0.00485
1.522,	0.00516
1.524,	0.00546
1.526,	0.00577
1.528,	0.00612
1.53,	0.00645
1.532,	0.00679
1.534,	0.00715
1.536,	0.00759
1.538,	0.00799
1.54,	0.00842
1.542,	0.00886
1.544,	0.00933
1.546,	0.00983
1.548,	0.01006
1.55,	0.01006
1.552,	0.01006
1.554,	0.01006
1.556,	0.01006
1.558,	0.01006
1.56,	0.01006
1.562,	0.01006
1.564,	0.01006
1.566,	0.01006
1.568,	0.01006
1.57,	0.01006
1.572,	0.01006
1.574,	0.01006
1.576,	0.01006
1.578,	0.01006
1.58,	0.01006
1.582,	0.01006
1.584,	0.01006
1.586,	0.01006
1.588,	0.01006
1.59,	0.01006
1.592,	0.01006
1.594,	0.01006
1.596,	0.01006
1.598,	0.01006
1.6,	0.01006
1.602,	0.01006
1.604,	0.01006
1.606,	0.01006
1.608,	0.01006
1.61,	0.01006
1.612,	0.01006
1.614,	0.01006
1.616,	0.01006
1.618,	0.01006
1.62,	0.01006
1.622,	0.01006
1.624,	0.01006
1.626,	0.01006
1.628,	0.01006
1.63,	0.01006
1.632,	0.01006
1.634,	0.01006
1.636,	0.01006
1.638,	0.01006
1.64,	0.01006
1.642,	0.01006
1.644,	0.01006
1.646,	0.01006
1.648,	0.01006
1.65,	0.01006
1.652,	0.01006
1.654,	0.01006
1.656,	0.01006
1.658,	0.01006
1.66,	0.01006
1.662,	0.01006
1.664,	0.01006
1.666,	0.01006
1.668,	0.01006
1.67,	0.01006
1.672,	0.01006
1.674,	0.01006
1.676,	0.01006
1.678,	0.01006
1.68,	0.01006
1.682,	0.01006
1.684,	0.01006
1.686,	0.01006
1.688,	0.01006
1.69,	0.01006
1.692,	0.01006
1.694,	0.01006
1.696,	0.01006
1.697,	0.01006