File: Experimental Records and Raw Data/batch5/final400/B5_BEST_400_#1_High_Quality(#18)-186mV.txt
May 31, 2023   16:40:04
Linear Sweep Voltammetry
File: d:\current work\al_oer\electrochemical test data\batch 5\400\B5_BEST_400_#1_High_Quality(#18)-186mV.txt
Data Source:  Experiment
Instrument Model:  CHI660E
Header:
Note:

Init E (V) = 0.900

Final E (V) = 1.487

Scan Rate (V/s) = 0.010
Sample Interval (V) = 0.001
Quiet Time (sec) = 2
Sensitivity (A/V) = 0.001
Comp R (ohm) = 6.0

Results:

Channel 1:

Potential/V, Current/A
0.900,   4.216e-4
0.902,   4.804e-4
0.904,   5.061e-4
0.906,   4.883e-4
0.908,   4.895e-4
0.910,   4.794e-4
0.912,   4.562e-4
0.914,   4.814e-4
0.916,   4.561e-4
0.918,   4.683e-4
0.920,   4.494e-4
0.922,   4.328e-4
0.924,   4.589e-4
0.926,   4.302e-4
0.928,   4.428e-4
0.930,   4.265e-4
0.932,   4.128e-4
0.934,   4.444e-4
0.936,   4.079e-4
0.938,   4.230e-4
0.940,   4.102e-4
0.942,   3.966e-4
0.944,   4.176e-4
0.946,   4.070e-4
0.948,   4.021e-4
0.950,   3.980e-4
0.952,   3.853e-4
0.954,   4.025e-4
0.956,   3.943e-4
0.958,   3.865e-4
0.960,   4.009e-4
0.962,   3.804e-4
0.964,   3.900e-4
0.966,   3.902e-4
0.968,   3.734e-4
0.970,   3.843e-4
0.972,   3.748e-4
0.974,   3.857e-4
0.976,   3.756e-4
0.978,   3.660e-4
0.980,   3.888e-4
0.982,   3.602e-4
0.984,   3.804e-4
0.986,   3.715e-4
0.988,   3.572e-4
0.990,   3.733e-4
0.992,   3.653e-4
0.994,   3.687e-4
0.996,   3.723e-4
0.998,   3.514e-4
1.000,   3.710e-4
1.002,   3.568e-4
1.004,   3.665e-4
1.006,   3.667e-4
1.008,   3.475e-4
1.010,   3.715e-4
1.012,   3.541e-4
1.014,   3.600e-4
1.016,   3.687e-4
1.018,   3.468e-4
1.020,   3.628e-4
1.022,   3.513e-4
1.024,   3.645e-4
1.026,   3.574e-4
1.028,   3.420e-4
1.030,   3.710e-4
1.032,   3.499e-4
1.034,   3.563e-4
1.036,   3.607e-4
1.038,   3.424e-4
1.040,   3.618e-4
1.042,   3.480e-4
1.044,   3.597e-4
1.046,   3.560e-4
1.048,   3.394e-4
1.050,   3.620e-4
1.052,   3.492e-4
1.054,   3.552e-4
1.056,   3.570e-4
1.058,   3.418e-4
1.060,   3.656e-4
1.062,   3.490e-4
1.064,   3.518e-4
1.066,   3.663e-4
1.068,   3.437e-4
1.070,   3.657e-4
1.072,   3.547e-4
1.074,   3.555e-4
1.076,   3.644e-4
1.078,   3.457e-4
1.080,   3.695e-4
1.082,   3.518e-4
1.084,   3.621e-4
1.086,   3.665e-4
1.088,   3.489e-4
1.090,   3.760e-4
1.092,   3.588e-4
1.094,   3.633e-4
1.096,   3.710e-4
1.098,   3.537e-4
1.100,   3.784e-4
1.102,   3.625e-4
1.104,   3.610e-4
1.106,   3.850e-4
1.108,   3.525e-4
1.110,   3.889e-4
1.112,   3.640e-4
1.114,   3.644e-4
1.116,   3.888e-4
1.118,   3.617e-4
1.120,   3.904e-4
1.122,   3.771e-4
1.124,   3.717e-4
1.126,   3.953e-4
1.128,   3.674e-4
1.130,   4.012e-4
1.132,   3.844e-4
1.134,   3.769e-4
1.136,   4.099e-4
1.138,   3.745e-4
1.140,   4.064e-4
1.142,   3.995e-4
1.144,   3.788e-4
1.146,   4.175e-4
1.148,   3.868e-4
1.150,   4.109e-4
1.152,   4.076e-4
1.154,   3.840e-4
1.156,   4.311e-4
1.158,   3.961e-4
1.160,   4.194e-4
1.162,   3.992e-4
1.164,   3.961e-4
1.166,   4.419e-4
1.168,   4.003e-4
1.170,   4.186e-4
1.172,   4.227e-4
1.174,   3.971e-4
1.176,   4.440e-4
1.178,   4.093e-4
1.180,   4.300e-4
1.182,   4.184e-4
1.184,   4.090e-4
1.186,   4.597e-4
1.188,   4.232e-4
1.190,   4.352e-4
1.192,   4.363e-4
1.194,   4.176e-4
1.196,   4.731e-4
1.198,   4.216e-4
1.200,   4.403e-4
1.202,   4.559e-4
1.204,   4.280e-4
1.206,   4.769e-4
1.208,   4.397e-4
1.210,   4.561e-4
1.212,   4.599e-4
1.214,   4.404e-4
1.216,   4.893e-4
1.218,   4.569e-4
1.220,   4.687e-4
1.222,   4.862e-4
1.224,   4.533e-4
1.226,   5.096e-4
1.228,   4.800e-4
1.230,   4.751e-4
1.232,   5.014e-4
1.234,   4.702e-4
1.236,   5.230e-4
1.238,   4.918e-4
1.240,   4.905e-4
1.242,   5.123e-4
1.244,   4.830e-4
1.246,   5.522e-4
1.248,   4.998e-4
1.250,   5.070e-4
1.252,   5.507e-4
1.254,   5.028e-4
1.256,   5.593e-4
1.258,   5.197e-4
1.260,   5.214e-4
1.262,   5.689e-4
1.264,   5.219e-4
1.266,   5.831e-4
1.268,   5.521e-4
1.270,   5.388e-4
1.272,   5.999e-4
1.274,   5.293e-4
1.276,   5.939e-4
1.278,   5.856e-4
1.280,   5.522e-4
1.282,   6.065e-4
1.284,   5.767e-4
1.286,   6.214e-4
1.288,   5.892e-4
1.290,   5.830e-4
1.292,   6.562e-4
1.294,   5.827e-4
1.296,   6.351e-4
1.298,   6.396e-4
1.300,   6.068e-4
1.302,   6.829e-4
1.304,   6.080e-4
1.306,   6.726e-4
1.308,   6.801e-4
1.310,   6.246e-4
1.312,   7.163e-4
1.314,   6.453e-4
1.316,   6.998e-4
1.318,   7.091e-4
1.320,   6.624e-4
1.322,   7.499e-4
1.324,   6.980e-4
1.326,   7.154e-4
1.328,   7.380e-4
1.330,   6.925e-4
1.332,   8.006e-4
1.334,   7.178e-4
1.336,   7.674e-4
1.338,   7.924e-4
1.340,   7.244e-4
1.342,   8.409e-4
1.344,   7.757e-4
1.346,   8.102e-4
1.348,   8.350e-4
1.350,   7.879e-4
1.352,   8.909e-4
1.354,   8.380e-4
1.356,   8.560e-4
1.358,   8.809e-4
1.360,   8.530e-4
1.362,   9.721e-4
1.364,   8.708e-4
1.366,   9.196e-4
1.368,   9.709e-4
1.370,   8.952e-4
1.372,   1.023e-3
1.374,   9.769e-4
1.376,   9.882e-4
1.378,   1.051e-3
1.380,   9.979e-4
1.382,   1.123e-3
1.384,   1.037e-3
1.386,   1.089e-3
1.388,   1.178e-3
1.390,   1.119e-3
1.392,   1.233e-3
1.394,   1.223e-3
1.396,   1.252e-3
1.398,   1.320e-3
1.400,   1.285e-3
1.402,   1.456e-3
1.404,   1.420e-3
1.406,   1.442e-3
1.408,   1.614e-3
1.410,   1.548e-3
1.412,   1.750e-3
1.414,   1.721e-3
1.416,   1.794e-3
1.418,   2.033e-3
1.420,   2.003e-3
1.422,   2.229e-3
1.424,   2.334e-3
1.426,   2.398e-3
1.428,   2.676e-3
1.430,   2.800e-3
1.432,   3.139e-3
1.434,   3.258e-3
1.436,   3.386e-3
1.438,   4.049e-3
1.440,   4.046e-3
1.442,   4.526e-3
1.444,   5.085e-3
1.446,   5.184e-3
1.448,   6.059e-3
1.450,   6.387e-3
1.452,   7.067e-3
1.454,   7.623e-3
1.456,   7.701e-3
1.458,   8.816e-3
1.460,   9.009e-3
1.462,   9.242e-3
1.464,   9.561e-3
1.466,   9.404e-3
1.468,   9.835e-3
1.470,   9.947e-3
1.472,   1.006e-2
1.474,   1.007e-2
1.476,   1.007e-2
1.478,   1.007e-2
1.480,   1.007e-2
1.482,   1.007e-2
1.484,   1.007e-2
1.486,   1.007e-2
1.487,   1.007e-2