File: Experimental Records and Raw Data/batch5/final400/B5_BEST_400_#1_Full(#7)-267mV.txt
May 31, 2023   16:21:23
Linear Sweep Voltammetry
File: d:\current work\al_oer\electrochemical test data\batch 5\400\B5_BEST_400_#1_Full(#7)-267mV.txt
Data Source:  Experiment
Instrument Model:  CHI660E
Header:
Note:

Init E (V) = 0.902

Final E (V) = 1.580

Scan Rate (V/s) = 0.010
Sample Interval (V) = 0.001
Quiet Time (sec) = 2
Sensitivity (A/V) = 0.001
Comp R (ohm) = 7.1

Results:

Channel 1:

Potential/V, Current/A
0.902,   7.651e-5
0.905,   8.115e-5
0.908,   8.016e-5
0.911,   7.820e-5
0.914,   7.759e-5
0.917,   7.588e-5
0.920,   7.493e-5
0.923,   7.356e-5
0.926,   7.219e-5
0.929,   7.156e-5
0.932,   7.012e-5
0.935,   6.962e-5
0.938,   6.828e-5
0.941,   6.771e-5
0.944,   6.698e-5
0.947,   6.598e-5
0.950,   6.589e-5
0.953,   6.481e-5
0.956,   6.450e-5
0.959,   6.372e-5
0.962,   6.305e-5
0.965,   6.280e-5
0.968,   6.195e-5
0.971,   6.193e-5
0.974,   6.141e-5
0.977,   6.096e-5
0.980,   6.050e-5
0.983,   6.010e-5
0.986,   5.993e-5
0.989,   5.946e-5
0.992,   5.926e-5
0.995,   5.863e-5
0.998,   5.826e-5
1.001,   5.865e-5
1.004,   5.782e-5
1.007,   5.807e-5
1.010,   5.748e-5
1.013,   5.742e-5
1.016,   5.713e-5
1.019,   5.688e-5
1.022,   5.710e-5
1.025,   5.660e-5
1.028,   5.677e-5
1.031,   5.624e-5
1.034,   5.632e-5
1.037,   5.641e-5
1.040,   5.570e-5
1.043,   5.634e-5
1.046,   5.597e-5
1.049,   5.620e-5
1.052,   5.591e-5
1.055,   5.601e-5
1.058,   5.637e-5
1.061,   5.571e-5
1.064,   5.623e-5
1.067,   5.600e-5
1.070,   5.580e-5
1.073,   5.607e-5
1.076,   5.586e-5
1.079,   5.642e-5
1.082,   5.601e-5
1.085,   5.663e-5
1.088,   5.607e-5
1.091,   5.628e-5
1.094,   5.676e-5
1.097,   5.655e-5
1.100,   5.704e-5
1.103,   5.680e-5
1.106,   5.716e-5
1.109,   5.733e-5
1.112,   5.715e-5
1.115,   5.776e-5
1.118,   5.760e-5
1.121,   5.807e-5
1.124,   5.792e-5
1.127,   5.817e-5
1.130,   5.856e-5
1.133,   5.842e-5
1.136,   5.897e-5
1.139,   5.900e-5
1.142,   5.942e-5
1.145,   5.948e-5
1.148,   5.953e-5
1.151,   5.994e-5
1.154,   6.009e-5
1.157,   6.066e-5
1.160,   6.052e-5
1.163,   6.100e-5
1.166,   6.119e-5
1.169,   6.121e-5
1.172,   6.177e-5
1.175,   6.189e-5
1.178,   6.200e-5
1.181,   6.197e-5
1.184,   6.220e-5
1.187,   6.260e-5
1.190,   6.267e-5
1.193,   6.342e-5
1.196,   6.295e-5
1.199,   6.328e-5
1.202,   6.348e-5
1.205,   6.337e-5
1.208,   6.402e-5
1.211,   6.381e-5
1.214,   6.407e-5
1.217,   6.436e-5
1.220,   6.428e-5
1.223,   6.525e-5
1.226,   6.447e-5
1.229,   6.519e-5
1.232,   6.507e-5
1.235,   6.543e-5
1.238,   6.608e-5
1.241,   6.554e-5
1.244,   6.613e-5
1.247,   6.604e-5
1.250,   6.654e-5
1.253,   6.647e-5
1.256,   6.642e-5
1.259,   6.704e-5
1.262,   6.701e-5
1.265,   6.778e-5
1.268,   6.731e-5
1.271,   6.728e-5
1.274,   6.775e-5
1.277,   6.753e-5
1.280,   6.820e-5
1.283,   6.825e-5
1.286,   6.882e-5
1.289,   6.887e-5
1.292,   6.898e-5
1.295,   6.962e-5
1.298,   6.939e-5
1.301,   7.045e-5
1.304,   6.998e-5
1.307,   7.068e-5
1.310,   7.090e-5
1.313,   7.085e-5
1.316,   7.196e-5
1.319,   7.137e-5
1.322,   7.239e-5
1.325,   7.202e-5
1.328,   7.267e-5
1.331,   7.335e-5
1.334,   7.350e-5
1.337,   7.463e-5
1.340,   7.497e-5
1.343,   7.545e-5
1.346,   7.592e-5
1.349,   7.552e-5
1.352,   7.759e-5
1.355,   7.701e-5
1.358,   7.851e-5
1.361,   7.868e-5
1.364,   7.944e-5
1.367,   8.081e-5
1.370,   8.071e-5
1.373,   8.239e-5
1.376,   8.258e-5
1.379,   8.414e-5
1.382,   8.494e-5
1.385,   8.598e-5
1.388,   8.836e-5
1.391,   8.892e-5
1.394,   9.126e-5
1.397,   9.238e-5
1.400,   9.468e-5
1.403,   9.700e-5
1.406,   9.912e-5
1.409,   1.034e-4
1.412,   1.057e-4
1.415,   1.103e-4
1.418,   1.135e-4
1.421,   1.200e-4
1.424,   1.272e-4
1.427,   1.341e-4
1.430,   1.434e-4
1.433,   1.531e-4
1.436,   1.671e-4
1.439,   1.814e-4
1.442,   1.982e-4
1.445,   2.212e-4
1.448,   2.438e-4
1.451,   2.741e-4
1.454,   3.058e-4
1.457,   3.490e-4
1.460,   3.959e-4
1.463,   4.475e-4
1.466,   5.164e-4
1.469,   5.829e-4
1.472,   6.742e-4
1.475,   7.590e-4
1.478,   8.700e-4
1.481,   1.001e-3
1.484,   1.120e-3
1.487,   1.291e-3
1.490,   1.437e-3
1.493,   1.629e-3
1.496,   1.816e-3
1.499,   2.005e-3
1.502,   2.263e-3
1.505,   2.469e-3
1.508,   2.787e-3
1.511,   3.037e-3
1.514,   3.382e-3
1.517,   3.728e-3
1.520,   4.072e-3
1.523,   4.509e-3
1.526,   4.767e-3
1.529,   5.264e-3
1.532,   5.642e-3
1.535,   6.047e-3
1.538,   6.440e-3
1.541,   6.737e-3
1.544,   7.290e-3
1.547,   7.611e-3
1.550,   8.104e-3
1.553,   8.401e-3
1.556,   8.726e-3
1.559,   9.226e-3
1.562,   9.235e-3
1.565,   9.619e-3
1.568,   9.935e-3
1.571,   9.967e-3
1.574,   1.005e-2
1.577,   1.007e-2
1.580,   1.007e-2