File: Experimental Records and Raw Data/batch5/final400/B5_BEST_400_#1_High_Quality(#19)-208mV.txt
May 30, 2023   22:01:59
Linear Sweep Voltammetry
File: d:\current work\al_oer\electrochemical test data\batch 5\400\B5_BEST_400_#1_High_Quality(#19)-208mV.txt
Data Source:  Experiment
Instrument Model:  CHI660E
Header:
Note:

Init E (V) = 0.898

Final E (V) = 1.521

Scan Rate (V/s) = 0.010
Sample Interval (V) = 0.001
Quiet Time (sec) = 2
Sensitivity (A/V) = 0.001
Comp R (ohm) = 7.3

Results:

Channel 1:

Potential/V, Current/A
0.898,   3.261e-3
0.901,   2.859e-3
0.904,   2.525e-3
0.907,   2.240e-3
0.910,   2.004e-3
0.913,   1.815e-3
0.916,   1.650e-3
0.919,   1.521e-3
0.922,   1.404e-3
0.925,   1.304e-3
0.928,   1.219e-3
0.931,   1.138e-3
0.934,   1.080e-3
0.937,   1.020e-3
0.940,   9.637e-4
0.943,   9.228e-4
0.946,   8.806e-4
0.949,   8.428e-4
0.952,   8.084e-4
0.955,   7.800e-4
0.958,   7.515e-4
0.961,   7.284e-4
0.964,   7.066e-4
0.967,   6.881e-4
0.970,   6.686e-4
0.973,   6.525e-4
0.976,   6.351e-4
0.979,   6.223e-4
0.982,   6.088e-4
0.985,   5.939e-4
0.988,   5.864e-4
0.991,   5.757e-4
0.994,   5.690e-4
0.997,   5.570e-4
1.000,   5.529e-4
1.003,   5.426e-4
1.006,   5.369e-4
1.009,   5.294e-4
1.012,   5.254e-4
1.015,   5.206e-4
1.018,   5.158e-4
1.021,   5.100e-4
1.024,   5.065e-4
1.027,   5.017e-4
1.030,   4.987e-4
1.033,   4.950e-4
1.036,   4.905e-4
1.039,   4.905e-4
1.042,   4.893e-4
1.045,   4.873e-4
1.048,   4.852e-4
1.051,   4.831e-4
1.054,   4.801e-4
1.057,   4.795e-4
1.060,   4.789e-4
1.063,   4.796e-4
1.066,   4.776e-4
1.069,   4.775e-4
1.072,   4.751e-4
1.075,   4.784e-4
1.078,   4.761e-4
1.081,   4.766e-4
1.084,   4.775e-4
1.087,   4.806e-4
1.090,   4.805e-4
1.093,   4.818e-4
1.096,   4.817e-4
1.099,   4.836e-4
1.102,   4.833e-4
1.105,   4.858e-4
1.108,   4.850e-4
1.111,   4.865e-4
1.114,   4.870e-4
1.117,   4.883e-4
1.120,   4.896e-4
1.123,   4.894e-4
1.126,   4.915e-4
1.129,   4.904e-4
1.132,   4.902e-4
1.135,   4.920e-4
1.138,   4.923e-4
1.141,   4.930e-4
1.144,   4.944e-4
1.147,   4.953e-4
1.150,   4.959e-4
1.153,   4.989e-4
1.156,   4.995e-4
1.159,   5.008e-4
1.162,   5.006e-4
1.165,   5.007e-4
1.168,   5.035e-4
1.171,   5.062e-4
1.174,   5.059e-4
1.177,   5.100e-4
1.180,   5.130e-4
1.183,   5.164e-4
1.186,   5.171e-4
1.189,   5.204e-4
1.192,   5.217e-4
1.195,   5.250e-4
1.198,   5.241e-4
1.201,   5.323e-4
1.204,   5.324e-4
1.207,   5.402e-4
1.210,   5.404e-4
1.213,   5.479e-4
1.216,   5.492e-4
1.219,   5.544e-4
1.222,   5.561e-4
1.225,   5.608e-4
1.228,   5.648e-4
1.231,   5.674e-4
1.234,   5.709e-4
1.237,   5.728e-4
1.240,   5.776e-4
1.243,   5.843e-4
1.246,   5.881e-4
1.249,   5.886e-4
1.252,   5.970e-4
1.255,   5.992e-4
1.258,   6.052e-4
1.261,   6.063e-4
1.264,   6.136e-4
1.267,   6.159e-4
1.270,   6.224e-4
1.273,   6.268e-4
1.276,   6.336e-4
1.279,   6.403e-4
1.282,   6.460e-4
1.285,   6.518e-4
1.288,   6.535e-4
1.291,   6.609e-4
1.294,   6.648e-4
1.297,   6.736e-4
1.300,   6.767e-4
1.303,   6.816e-4
1.306,   6.880e-4
1.309,   6.946e-4
1.312,   6.998e-4
1.315,   7.077e-4
1.318,   7.135e-4
1.321,   7.213e-4
1.324,   7.261e-4
1.327,   7.374e-4
1.330,   7.427e-4
1.333,   7.522e-4
1.336,   7.589e-4
1.339,   7.734e-4
1.342,   7.773e-4
1.345,   7.925e-4
1.348,   7.980e-4
1.351,   8.097e-4
1.354,   8.212e-4
1.357,   8.337e-4
1.360,   8.445e-4
1.363,   8.567e-4
1.366,   8.704e-4
1.369,   8.798e-4
1.372,   8.981e-4
1.375,   9.135e-4
1.378,   9.293e-4
1.381,   9.508e-4
1.384,   9.674e-4
1.387,   9.849e-4
1.390,   1.004e-3
1.393,   1.027e-3
1.396,   1.044e-3
1.399,   1.076e-3
1.402,   1.101e-3
1.405,   1.132e-3
1.408,   1.165e-3
1.411,   1.200e-3
1.414,   1.244e-3
1.417,   1.296e-3
1.420,   1.357e-3
1.423,   1.416e-3
1.426,   1.492e-3
1.429,   1.571e-3
1.432,   1.679e-3
1.435,   1.784e-3
1.438,   1.911e-3
1.441,   2.049e-3
1.444,   2.211e-3
1.447,   2.387e-3
1.450,   2.598e-3
1.453,   2.805e-3
1.456,   3.038e-3
1.459,   3.290e-3
1.462,   3.589e-3
1.465,   3.878e-3
1.468,   4.238e-3
1.471,   4.581e-3
1.474,   4.965e-3
1.477,   5.344e-3
1.480,   5.780e-3
1.483,   6.219e-3
1.486,   6.662e-3
1.489,   7.089e-3
1.492,   7.521e-3
1.495,   8.119e-3
1.498,   8.504e-3
1.501,   8.941e-3
1.504,   9.172e-3
1.507,   9.803e-3
1.510,   9.974e-3
1.513,   1.006e-2
1.516,   1.007e-2
1.519,   1.007e-2
1.521,   1.007e-2