File: Experimental Records and Raw Data/batch5/final400/B5_BEST_400_#1_Full(#12)-288mV.txt
May 30, 2023   14:58:04
Linear Sweep Voltammetry
File: d:\current work\al_oer\electrochemical test data\batch 5\400\B5_BEST_400_#1_Full(#12)-288mV.txt
Data Source:  Experiment
Instrument Model:  CHI660E
Header:
Note:

Init E (V) = 0.900

Final E (V) = 1.639

Scan Rate (V/s) = 0.010
Sample Interval (V) = 0.001
Quiet Time (sec) = 2
Sensitivity (A/V) = 0.001

Results:

Channel 1:

Potential/V, Current/A
0.91,   1.618E-04
0.913,   1.514E-04
0.916,   1.390E-04
0.919,   1.286E-04
0.922,   1.196E-04
0.925,   1.120E-04
0.928,   1.055E-04
0.931,   9.946E-05
0.934,   9.440E-05
0.937,   9.018E-05
0.94,   8.619E-05
0.943,   8.248E-05
0.946,   7.924E-05
0.949,   7.655E-05
0.952,   7.371E-05
0.955,   7.132E-05
0.958,   6.916E-05
0.961,   6.696E-05
0.964,   6.545E-05
0.967,   6.349E-05
0.97,   6.204E-05
0.973,   6.067E-05
0.976,   5.920E-05
0.979,   5.809E-05
0.982,   5.682E-05
0.985,   5.565E-05
0.988,   5.474E-05
0.991,   5.381E-05
0.994,   5.302E-05
0.997,   5.231E-05
1,   5.159E-05
1.003,   5.093E-05
1.006,   5.024E-05
1.009,   4.963E-05
1.012,   4.903E-05
1.015,   4.857E-05
1.018,   4.797E-05
1.021,   4.754E-05
1.024,   4.708E-05
1.027,   4.653E-05
1.03,   4.621E-05
1.033,   4.603E-05
1.036,   4.548E-05
1.039,   4.540E-05
1.042,   4.498E-05
1.045,   4.455E-05
1.048,   4.448E-05
1.051,   4.419E-05
1.054,   4.399E-05
1.057,   4.382E-05
1.06,   4.364E-05
1.063,   4.341E-05
1.066,   4.330E-05
1.069,   4.317E-05
1.072,   4.294E-05
1.075,   4.291E-05
1.078,   4.279E-05
1.081,   4.267E-05
1.084,   4.261E-05
1.087,   4.249E-05
1.09,   4.240E-05
1.093,   4.227E-05
1.096,   4.231E-05
1.099,   4.239E-05
1.102,   4.209E-05
1.105,   4.216E-05
1.108,   4.224E-05
1.111,   4.234E-05
1.114,   4.238E-05
1.117,   4.230E-05
1.12,   4.225E-05
1.123,   4.243E-05
1.126,   4.260E-05
1.129,   4.260E-05
1.132,   4.259E-05
1.135,   4.276E-05
1.138,   4.268E-05
1.141,   4.285E-05
1.144,   4.291E-05
1.147,   4.305E-05
1.15,   4.312E-05
1.153,   4.349E-05
1.156,   4.359E-05
1.159,   4.373E-05
1.162,   4.396E-05
1.165,   4.394E-05
1.168,   4.418E-05
1.171,   4.440E-05
1.174,   4.472E-05
1.177,   4.493E-05
1.18,   4.515E-05
1.183,   4.535E-05
1.186,   4.557E-05
1.189,   4.581E-05
1.192,   4.607E-05
1.195,   4.629E-05
1.198,   4.663E-05
1.201,   4.691E-05
1.204,   4.713E-05
1.207,   4.729E-05
1.21,   4.768E-05
1.213,   4.825E-05
1.216,   4.835E-05
1.219,   4.870E-05
1.222,   4.894E-05
1.225,   4.926E-05
1.228,   4.955E-05
1.231,   4.987E-05
1.234,   5.017E-05
1.237,   5.077E-05
1.24,   5.102E-05
1.243,   5.136E-05
1.246,   5.153E-05
1.249,   5.192E-05
1.252,   5.213E-05
1.255,   5.244E-05
1.258,   5.271E-05
1.261,   5.304E-05
1.264,   5.321E-05
1.267,   5.361E-05
1.27,   5.389E-05
1.273,   5.410E-05
1.276,   5.435E-05
1.279,   5.457E-05
1.282,   5.480E-05
1.285,   5.497E-05
1.288,   5.537E-05
1.291,   5.563E-05
1.294,   5.583E-05
1.297,   5.613E-05
1.3,   5.629E-05
1.303,   5.657E-05
1.306,   5.680E-05
1.309,   5.679E-05
1.312,   5.703E-05
1.315,   5.740E-05
1.318,   5.766E-05
1.321,   5.784E-05
1.324,   5.811E-05
1.327,   5.835E-05
1.33,   5.865E-05
1.333,   5.889E-05
1.336,   5.917E-05
1.339,   5.930E-05
1.342,   5.970E-05
1.345,   6.026E-05
1.348,   6.023E-05
1.351,   6.061E-05
1.354,   6.092E-05
1.357,   6.129E-05
1.36,   6.175E-05
1.363,   6.218E-05
1.366,   6.271E-05
1.369,   6.336E-05
1.372,   6.387E-05
1.375,   6.424E-05
1.378,   6.504E-05
1.381,   6.536E-05
1.384,   6.599E-05
1.387,   6.668E-05
1.39,   6.758E-05
1.393,   6.877E-05
1.396,   6.974E-05
1.399,   7.062E-05
1.402,   7.184E-05
1.405,   7.331E-05
1.408,   7.488E-05
1.411,   7.699E-05
1.414,   7.883E-05
1.417,   8.183E-05
1.42,   8.452E-05
1.423,   8.804E-05
1.426,   9.260E-05
1.429,   9.723E-05
1.432,   1.034E-04
1.435,   1.110E-04
1.438,   1.198E-04
1.441,   1.305E-04
1.444,   1.428E-04
1.447,   1.577E-04
1.45,   1.754E-04
1.453,   1.954E-04
1.456,   2.193E-04
1.459,   2.463E-04
1.462,   2.774E-04
1.465,   3.130E-04
1.468,   3.527E-04
1.471,   3.981E-04
1.474,   4.480E-04
1.477,   5.039E-04
1.48,   5.657E-04
1.483,   6.326E-04
1.486,   7.078E-04
1.489,   7.882E-04
1.492,   8.750E-04
1.495,   9.713E-04
1.498,   1.076E-03
1.501,   1.184E-03
1.504,   1.299E-03
1.507,   1.425E-03
1.51,   1.553E-03
1.513,   1.685E-03
1.516,   1.835E-03
1.519,   1.984E-03
1.522,   2.139E-03
1.525,   2.292E-03
1.528,   2.456E-03
1.531,   2.644E-03
1.534,   2.801E-03
1.537,   2.975E-03
1.54,   3.176E-03
1.543,   3.337E-03
1.546,   3.574E-03
1.549,   3.727E-03
1.552,   3.905E-03
1.555,   4.103E-03
1.558,   4.267E-03
1.561,   4.497E-03
1.564,   4.682E-03
1.567,   4.957E-03
1.57,   5.096E-03
1.573,   5.263E-03
1.576,   5.410E-03
1.579,   6.096E-03
1.582,   6.157E-03
1.585,   6.366E-03
1.588,   6.443E-03
1.591,   6.679E-03
1.594,   6.855E-03
1.597,   6.980E-03
1.6,   7.530E-03
1.603,   7.721E-03
1.606,   7.793E-03
1.609,   8.367E-03
1.612,   8.712E-03
1.615,   8.846E-03
1.618,   9.038E-03
1.621,   9.300E-03
1.624,   9.268E-03
1.627,   9.252E-03
1.63,   9.603E-03
1.633,   9.812E-03
1.636,   1.007E-02
1.639,   1.007E-02