File: Experimental Records and Raw Data/batch5/final400/B5_BEST_400_#1_Full(#14)-246mV.txt
May 31, 2023   15:24:05
Linear Sweep Voltammetry
File: d:\current work\al_oer\electrochemical test data\batch 5\400\B5_BEST_400_#1_Full(#14)-246mV.txt
Data Source:  Experiment
Instrument Model:  CHI660E
Header:
Note:

Init E (V) = 0.896

Final E (V) = 1.553

Scan Rate (V/s) = 0.010
Sample Interval (V) = 0.001
Quiet Time (sec) = 2
Sensitivity (A/V) = 0.001
Comp R (ohm) = 6.0

Results:

Channel 1:

Potential/V, Current/A
0.896,   1.324e-4
0.899,   1.427e-4
0.902,   1.414e-4
0.905,   1.357e-4
0.908,   1.359e-4
0.911,   1.335e-4
0.914,   1.295e-4
0.917,   1.290e-4
0.920,   1.252e-4
0.923,   1.248e-4
0.926,   1.250e-4
0.929,   1.196e-4
0.932,   1.209e-4
0.935,   1.202e-4
0.938,   1.154e-4
0.941,   1.166e-4
0.944,   1.148e-4
0.947,   1.128e-4
0.950,   1.128e-4
0.953,   1.102e-4
0.956,   1.105e-4
0.959,   1.110e-4
0.962,   1.069e-4
0.965,   1.083e-4
0.968,   1.080e-4
0.971,   1.042e-4
0.974,   1.064e-4
0.977,   1.054e-4
0.980,   1.029e-4
0.983,   1.038e-4
0.986,   1.014e-4
0.989,   1.020e-4
0.992,   1.028e-4
0.995,   9.941e-5
0.998,   1.015e-4
1.001,   1.017e-4
1.004,   9.781e-5
1.007,   9.990e-5
1.010,   9.970e-5
1.013,   9.743e-5
1.016,   9.848e-5
1.019,   9.681e-5
1.022,   9.746e-5
1.025,   9.796e-5
1.028,   9.457e-5
1.031,   9.725e-5
1.034,   9.784e-5
1.037,   9.449e-5
1.040,   9.640e-5
1.043,   9.649e-5
1.046,   9.443e-5
1.049,   9.536e-5
1.052,   9.431e-5
1.055,   9.473e-5
1.058,   9.561e-5
1.061,   9.271e-5
1.064,   9.530e-5
1.067,   9.605e-5
1.070,   9.275e-5
1.073,   9.520e-5
1.076,   9.557e-5
1.079,   9.295e-5
1.082,   9.509e-5
1.085,   9.383e-5
1.088,   9.415e-5
1.091,   9.546e-5
1.094,   9.324e-5
1.097,   9.510e-5
1.100,   9.688e-5
1.103,   9.320e-5
1.106,   9.640e-5
1.109,   9.679e-5
1.112,   9.447e-5
1.115,   9.628e-5
1.118,   9.560e-5
1.121,   9.547e-5
1.124,   9.707e-5
1.127,   9.464e-5
1.130,   9.735e-5
1.133,   9.869e-5
1.136,   9.520e-5
1.139,   9.873e-5
1.142,   9.978e-5
1.145,   9.658e-5
1.148,   9.921e-5
1.151,   9.872e-5
1.154,   9.853e-5
1.157,   1.001e-4
1.160,   9.789e-5
1.163,   1.008e-4
1.166,   1.019e-4
1.169,   9.847e-5
1.172,   1.021e-4
1.175,   1.029e-4
1.178,   1.004e-4
1.181,   1.026e-4
1.184,   1.020e-4
1.187,   1.020e-4
1.190,   1.034e-4
1.193,   1.011e-4
1.196,   1.037e-4
1.199,   1.043e-4
1.202,   1.016e-4
1.205,   1.053e-4
1.208,   1.066e-4
1.211,   1.030e-4
1.214,   1.070e-4
1.217,   1.056e-4
1.220,   1.048e-4
1.223,   1.075e-4
1.226,   1.040e-4
1.229,   1.073e-4
1.232,   1.089e-4
1.235,   1.053e-4
1.238,   1.088e-4
1.241,   1.103e-4
1.244,   1.067e-4
1.247,   1.100e-4
1.250,   1.107e-4
1.253,   1.086e-4
1.256,   1.106e-4
1.259,   1.087e-4
1.262,   1.111e-4
1.265,   1.119e-4
1.268,   1.085e-4
1.271,   1.125e-4
1.274,   1.140e-4
1.277,   1.099e-4
1.280,   1.131e-4
1.283,   1.149e-4
1.286,   1.126e-4
1.289,   1.148e-4
1.292,   1.136e-4
1.295,   1.149e-4
1.298,   1.173e-4
1.301,   1.138e-4
1.304,   1.175e-4
1.307,   1.192e-4
1.310,   1.155e-4
1.313,   1.187e-4
1.316,   1.206e-4
1.319,   1.183e-4
1.322,   1.205e-4
1.325,   1.207e-4
1.328,   1.215e-4
1.331,   1.239e-4
1.334,   1.208e-4
1.337,   1.252e-4
1.340,   1.279e-4
1.343,   1.237e-4
1.346,   1.283e-4
1.349,   1.301e-4
1.352,   1.281e-4
1.355,   1.316e-4
1.358,   1.319e-4
1.361,   1.334e-4
1.364,   1.363e-4
1.367,   1.326e-4
1.370,   1.394e-4
1.373,   1.432e-4
1.376,   1.396e-4
1.379,   1.464e-4
1.382,   1.490e-4
1.385,   1.486e-4
1.388,   1.542e-4
1.391,   1.565e-4
1.394,   1.590e-4
1.397,   1.667e-4
1.400,   1.676e-4
1.403,   1.771e-4
1.406,   1.856e-4
1.409,   1.864e-4
1.412,   2.019e-4
1.415,   2.145e-4
1.418,   2.211e-4
1.421,   2.404e-4
1.424,   2.572e-4
1.427,   2.800e-4
1.430,   3.088e-4
1.433,   3.291e-4
1.436,   3.760e-4
1.439,   4.259e-4
1.442,   4.532e-4
1.445,   5.282e-4
1.448,   5.992e-4
1.451,   6.541e-4
1.454,   7.608e-4
1.457,   8.527e-4
1.460,   9.695e-4
1.463,   1.119e-3
1.466,   1.217e-3
1.469,   1.433e-3
1.472,   1.638e-3
1.475,   1.761e-3
1.478,   2.058e-3
1.481,   2.310e-3
1.484,   2.496e-3
1.487,   2.826e-3
1.490,   3.100e-3
1.493,   3.427e-3
1.496,   3.781e-3
1.499,   3.952e-3
1.502,   4.513e-3
1.505,   4.893e-3
1.508,   5.187e-3
1.511,   5.757e-3
1.514,   6.253e-3
1.517,   6.548e-3
1.520,   7.129e-3
1.523,   7.473e-3
1.526,   7.992e-3
1.529,   8.361e-3
1.532,   8.568e-3
1.535,   9.248e-3
1.538,   9.557e-3
1.541,   9.514e-3
1.544,   9.875e-3
1.547,   9.877e-3
1.550,   9.996e-3
1.553,   1.004e-2