File: Experimental Records and Raw Data/batch5/final400/B5_BEST_400_#1_High_Quality(#30)-234mV.txt
May 30, 2023   21:13:01
Linear Sweep Voltammetry
File: d:\current work\al_oer\electrochemical test data\batch 5\400\B5_BEST_400_#1_High_Quality(#30)-234mV.txt
Data Source:  Experiment
Instrument Model:  CHI660E
Header:
Note:

Init E (V) = 0.901

Final E (V) = 1.536

Scan Rate (V/s) = 0.010
Sample Interval (V) = 0.001
Quiet Time (sec) = 2
Sensitivity (A/V) = 0.001
Comp R (ohm) = 4.9

Results:

Channel 1:

Potential/V, Current/A
0.901,   2.495e-4
0.904,   2.356e-4
0.907,   2.144e-4
0.910,   1.972e-4
0.913,   1.826e-4
0.916,   1.712e-4
0.919,   1.607e-4
0.922,   1.525e-4
0.925,   1.452e-4
0.928,   1.384e-4
0.931,   1.327e-4
0.934,   1.281e-4
0.937,   1.227e-4
0.940,   1.193e-4
0.943,   1.158e-4
0.946,   1.119e-4
0.949,   1.094e-4
0.952,   1.073e-4
0.955,   1.042e-4
0.958,   1.020e-4
0.961,   1.007e-4
0.964,   9.828e-5
0.967,   9.686e-5
0.970,   9.548e-5
0.973,   9.363e-5
0.976,   9.202e-5
0.979,   9.092e-5
0.982,   8.936e-5
0.985,   8.829e-5
0.988,   8.739e-5
0.991,   8.720e-5
0.994,   8.547e-5
0.997,   8.530e-5
1.000,   8.402e-5
1.003,   8.286e-5
1.006,   8.283e-5
1.009,   8.168e-5
1.012,   8.142e-5
1.015,   8.038e-5
1.018,   8.032e-5
1.021,   7.924e-5
1.024,   7.903e-5
1.027,   7.897e-5
1.030,   7.799e-5
1.033,   7.803e-5
1.036,   7.785e-5
1.039,   7.698e-5
1.042,   7.711e-5
1.045,   7.687e-5
1.048,   7.652e-5
1.051,   7.647e-5
1.054,   7.624e-5
1.057,   7.603e-5
1.060,   7.587e-5
1.063,   7.587e-5
1.066,   7.603e-5
1.069,   7.520e-5
1.072,   7.545e-5
1.075,   7.630e-5
1.078,   7.505e-5
1.081,   7.600e-5
1.084,   7.556e-5
1.087,   7.606e-5
1.090,   7.590e-5
1.093,   7.635e-5
1.096,   7.638e-5
1.099,   7.648e-5
1.102,   7.779e-5
1.105,   7.690e-5
1.108,   7.655e-5
1.111,   7.758e-5
1.114,   7.716e-5
1.117,   7.737e-5
1.120,   7.782e-5
1.123,   7.849e-5
1.126,   7.875e-5
1.129,   7.894e-5
1.132,   7.945e-5
1.135,   7.941e-5
1.138,   8.051e-5
1.141,   8.048e-5
1.144,   8.198e-5
1.147,   8.170e-5
1.150,   8.209e-5
1.153,   8.213e-5
1.156,   8.267e-5
1.159,   8.281e-5
1.162,   8.351e-5
1.165,   8.473e-5
1.168,   8.484e-5
1.171,   8.479e-5
1.174,   8.551e-5
1.177,   8.623e-5
1.180,   8.584e-5
1.183,   8.720e-5
1.186,   8.770e-5
1.189,   8.711e-5
1.192,   8.935e-5
1.195,   8.974e-5
1.198,   9.115e-5
1.201,   9.051e-5
1.204,   9.152e-5
1.207,   9.107e-5
1.210,   9.255e-5
1.213,   9.325e-5
1.216,   9.439e-5
1.219,   9.419e-5
1.222,   9.477e-5
1.225,   9.500e-5
1.228,   9.532e-5
1.231,   9.624e-5
1.234,   9.694e-5
1.237,   9.711e-5
1.240,   9.799e-5
1.243,   9.798e-5
1.246,   9.864e-5
1.249,   9.929e-5
1.252,   9.969e-5
1.255,   1.001e-4
1.258,   1.004e-4
1.261,   1.012e-4
1.264,   1.013e-4
1.267,   1.012e-4
1.270,   1.019e-4
1.273,   1.020e-4
1.276,   1.027e-4
1.279,   1.039e-4
1.282,   1.041e-4
1.285,   1.042e-4
1.288,   1.054e-4
1.291,   1.051e-4
1.294,   1.061e-4
1.297,   1.078e-4
1.300,   1.078e-4
1.303,   1.079e-4
1.306,   1.098e-4
1.309,   1.092e-4
1.312,   1.099e-4
1.315,   1.110e-4
1.318,   1.114e-4
1.321,   1.115e-4
1.324,   1.140e-4
1.327,   1.134e-4
1.330,   1.136e-4
1.333,   1.158e-4
1.336,   1.169e-4
1.339,   1.174e-4
1.342,   1.174e-4
1.345,   1.187e-4
1.348,   1.200e-4
1.351,   1.231e-4
1.354,   1.230e-4
1.357,   1.244e-4
1.360,   1.262e-4
1.363,   1.276e-4
1.366,   1.292e-4
1.369,   1.319e-4
1.372,   1.332e-4
1.375,   1.359e-4
1.378,   1.380e-4
1.381,   1.413e-4
1.384,   1.443e-4
1.387,   1.486e-4
1.390,   1.519e-4
1.393,   1.573e-4
1.396,   1.627e-4
1.399,   1.682e-4
1.402,   1.781e-4
1.405,   1.866e-4
1.408,   1.964e-4
1.411,   2.112e-4
1.414,   2.266e-4
1.417,   2.442e-4
1.420,   2.675e-4
1.423,   2.952e-4
1.426,   3.278e-4
1.429,   3.706e-4
1.432,   4.197e-4
1.435,   4.736e-4
1.438,   5.492e-4
1.441,   6.280e-4
1.444,   7.215e-4
1.447,   8.403e-4
1.450,   9.726e-4
1.453,   1.118e-3
1.456,   1.301e-3
1.459,   1.498e-3
1.462,   1.703e-3
1.465,   1.961e-3
1.468,   2.217e-3
1.471,   2.501e-3
1.474,   2.831e-3
1.477,   3.157e-3
1.480,   3.491e-3
1.483,   3.865e-3
1.486,   4.260e-3
1.489,   4.681e-3
1.492,   5.133e-3
1.495,   5.605e-3
1.498,   6.075e-3
1.501,   6.565e-3
1.504,   7.145e-3
1.507,   7.727e-3
1.510,   8.327e-3
1.513,   9.012e-3
1.516,   9.274e-3
1.519,   9.662e-3
1.522,   1.000e-2
1.525,   1.007e-2
1.528,   1.007e-2
1.531,   1.007e-2
1.534,   1.007e-2
1.536,   1.007e-2