File: Experimental Records and Raw Data/batch5/final400/B5_BEST_400_#1_High_Quality(#32)-214mV.txt
May 31, 2023   14:04:35
Linear Sweep Voltammetry
File: d:\current work\al_oer\electrochemical test data\batch 5\400\B5_BEST_400_#1_High_Quality(#32)-214mV.txt
Data Source:  Experiment
Instrument Model:  CHI660E
Header:
Note:

Init E (V) = 0.898

Final E (V) = 1.525

Scan Rate (V/s) = 0.010
Sample Interval (V) = 0.001
Quiet Time (sec) = 2
Sensitivity (A/V) = 0.001
Comp R (ohm) = 6.0

Results:

Channel 1:

Potential/V, Current/A
0.898,   3.478e-4
0.901,   4.034e-4
0.904,   3.925e-4
0.907,   3.868e-4
0.910,   3.820e-4
0.913,   3.815e-4
0.916,   3.707e-4
0.919,   3.647e-4
0.922,   3.676e-4
0.925,   3.568e-4
0.928,   3.556e-4
0.931,   3.458e-4
0.934,   3.501e-4
0.937,   3.404e-4
0.940,   3.348e-4
0.943,   3.381e-4
0.946,   3.339e-4
0.949,   3.302e-4
0.952,   3.218e-4
0.955,   3.278e-4
0.958,   3.203e-4
0.961,   3.166e-4
0.964,   3.164e-4
0.967,   3.180e-4
0.970,   3.122e-4
0.973,   3.082e-4
0.976,   3.137e-4
0.979,   3.052e-4
0.982,   3.040e-4
0.985,   2.994e-4
0.988,   3.062e-4
0.991,   2.993e-4
0.994,   2.965e-4
0.997,   3.004e-4
1.000,   2.981e-4
1.003,   2.960e-4
1.006,   2.916e-4
1.009,   2.950e-4
1.012,   2.911e-4
1.015,   2.903e-4
1.018,   2.882e-4
1.021,   2.942e-4
1.024,   2.869e-4
1.027,   2.868e-4
1.030,   2.894e-4
1.033,   2.858e-4
1.036,   2.841e-4
1.039,   2.833e-4
1.042,   2.885e-4
1.045,   2.823e-4
1.048,   2.824e-4
1.051,   2.828e-4
1.054,   2.846e-4
1.057,   2.825e-4
1.060,   2.788e-4
1.063,   2.878e-4
1.066,   2.794e-4
1.069,   2.796e-4
1.072,   2.809e-4
1.075,   2.845e-4
1.078,   2.813e-4
1.081,   2.801e-4
1.084,   2.835e-4
1.087,   2.817e-4
1.090,   2.807e-4
1.093,   2.797e-4
1.096,   2.862e-4
1.099,   2.816e-4
1.102,   2.825e-4
1.105,   2.836e-4
1.108,   2.860e-4
1.111,   2.837e-4
1.114,   2.825e-4
1.117,   2.909e-4
1.120,   2.855e-4
1.123,   2.871e-4
1.126,   2.872e-4
1.129,   2.931e-4
1.132,   2.885e-4
1.135,   2.870e-4
1.138,   2.924e-4
1.141,   2.926e-4
1.144,   2.914e-4
1.147,   2.907e-4
1.150,   2.974e-4
1.153,   2.923e-4
1.156,   2.931e-4
1.159,   2.963e-4
1.162,   2.968e-4
1.165,   2.956e-4
1.168,   2.970e-4
1.171,   3.021e-4
1.174,   2.971e-4
1.177,   2.976e-4
1.180,   2.998e-4
1.183,   3.064e-4
1.186,   3.004e-4
1.189,   3.007e-4
1.192,   3.090e-4
1.195,   3.056e-4
1.198,   3.064e-4
1.201,   3.030e-4
1.204,   3.136e-4
1.207,   3.088e-4
1.210,   3.094e-4
1.213,   3.126e-4
1.216,   3.149e-4
1.219,   3.128e-4
1.222,   3.135e-4
1.225,   3.213e-4
1.228,   3.155e-4
1.231,   3.184e-4
1.234,   3.208e-4
1.237,   3.263e-4
1.240,   3.206e-4
1.243,   3.231e-4
1.246,   3.290e-4
1.249,   3.266e-4
1.252,   3.242e-4
1.255,   3.311e-4
1.258,   3.382e-4
1.261,   3.334e-4
1.264,   3.343e-4
1.267,   3.394e-4
1.270,   3.416e-4
1.273,   3.394e-4
1.276,   3.405e-4
1.279,   3.511e-4
1.282,   3.452e-4
1.285,   3.491e-4
1.288,   3.454e-4
1.291,   3.590e-4
1.294,   3.511e-4
1.297,   3.537e-4
1.300,   3.621e-4
1.303,   3.655e-4
1.306,   3.611e-4
1.309,   3.638e-4
1.312,   3.765e-4
1.315,   3.692e-4
1.318,   3.739e-4
1.321,   3.786e-4
1.324,   3.865e-4
1.327,   3.830e-4
1.330,   3.860e-4
1.333,   3.980e-4
1.336,   3.947e-4
1.339,   3.982e-4
1.342,   4.007e-4
1.345,   4.154e-4
1.348,   4.091e-4
1.351,   4.128e-4
1.354,   4.276e-4
1.357,   4.292e-4
1.360,   4.325e-4
1.363,   4.345e-4
1.366,   4.564e-4
1.369,   4.495e-4
1.372,   4.571e-4
1.375,   4.679e-4
1.378,   4.817e-4
1.381,   4.854e-4
1.384,   4.955e-4
1.387,   5.174e-4
1.390,   5.249e-4
1.393,   5.393e-4
1.396,   5.526e-4
1.399,   5.897e-4
1.402,   6.008e-4
1.405,   6.274e-4
1.408,   6.667e-4
1.411,   7.084e-4
1.414,   7.415e-4
1.417,   7.926e-4
1.420,   8.737e-4
1.423,   9.333e-4
1.426,   1.030e-3
1.429,   1.122e-3
1.432,   1.259e-3
1.435,   1.369e-3
1.438,   1.520e-3
1.441,   1.732e-3
1.444,   1.898e-3
1.447,   2.126e-3
1.450,   2.353e-3
1.453,   2.684e-3
1.456,   2.955e-3
1.459,   3.254e-3
1.462,   3.592e-3
1.465,   3.940e-3
1.468,   4.232e-3
1.471,   4.611e-3
1.474,   5.113e-3
1.477,   5.365e-3
1.480,   5.710e-3
1.483,   6.191e-3
1.486,   6.761e-3
1.489,   7.053e-3
1.492,   7.439e-3
1.495,   8.108e-3
1.498,   8.469e-3
1.501,   8.843e-3
1.504,   9.256e-3
1.507,   9.660e-3
1.510,   9.578e-3
1.513,   9.826e-3
1.516,   9.965e-3
1.519,   1.007e-2
1.522,   1.007e-2
1.525,   1.007e-2