File: Experimental Records and Raw Data/batch5/final400/B5_BEST_400_#1_Full(#2)-190mV.txt
May 30, 2023   22:13:25
Linear Sweep Voltammetry
File: d:\current work\al_oer\electrochemical test data\batch 5\400\B5_BEST_400_#1_Full(#2)-190mV.txt
Data Source:  Experiment
Instrument Model:  CHI660E
Header:
Note:

Init E (V) = 0.899

Final E (V) = 1.495

Scan Rate (V/s) = 0.010
Sample Interval (V) = 0.001
Quiet Time (sec) = 2
Sensitivity (A/V) = 0.001
Comp R (ohm) = 5.0

Results:

Channel 1:

Potential/V, Current/A
0.899,   4.252e-4
0.901,   5.634e-4
0.903,   5.629e-4
0.905,   5.439e-4
0.907,   5.278e-4
0.909,   5.271e-4
0.911,   5.229e-4
0.913,   5.165e-4
0.915,   4.993e-4
0.917,   4.954e-4
0.919,   4.984e-4
0.921,   4.897e-4
0.923,   4.774e-4
0.925,   4.762e-4
0.927,   4.751e-4
0.929,   4.669e-4
0.931,   4.668e-4
0.933,   4.585e-4
0.935,   4.600e-4
0.937,   4.537e-4
0.939,   4.492e-4
0.941,   4.469e-4
0.943,   4.490e-4
0.945,   4.457e-4
0.947,   4.460e-4
0.949,   4.417e-4
0.951,   4.356e-4
0.953,   4.347e-4
0.955,   4.349e-4
0.957,   4.276e-4
0.959,   4.300e-4
0.961,   4.285e-4
0.963,   4.286e-4
0.965,   4.307e-4
0.967,   4.277e-4
0.969,   4.264e-4
0.971,   4.226e-4
0.973,   4.186e-4
0.975,   4.230e-4
0.977,   4.213e-4
0.979,   4.181e-4
0.981,   4.165e-4
0.983,   4.176e-4
0.985,   4.255e-4
0.987,   4.195e-4
0.989,   4.129e-4
0.991,   4.122e-4
0.993,   4.179e-4
0.995,   4.217e-4
0.997,   4.111e-4
0.999,   4.087e-4
1.001,   4.223e-4
1.003,   4.201e-4
1.005,   4.122e-4
1.007,   4.097e-4
1.009,   4.129e-4
1.011,   4.195e-4
1.013,   4.075e-4
1.015,   4.057e-4
1.017,   4.128e-4
1.019,   4.202e-4
1.021,   4.122e-4
1.023,   4.158e-4
1.025,   4.111e-4
1.027,   4.196e-4
1.029,   4.192e-4
1.031,   4.072e-4
1.033,   4.111e-4
1.035,   4.140e-4
1.037,   4.164e-4
1.039,   4.082e-4
1.041,   4.139e-4
1.043,   4.184e-4
1.045,   4.202e-4
1.047,   4.114e-4
1.049,   4.147e-4
1.051,   4.177e-4
1.053,   4.173e-4
1.055,   4.174e-4
1.057,   4.155e-4
1.059,   4.194e-4
1.061,   4.237e-4
1.063,   4.205e-4
1.065,   4.139e-4
1.067,   4.203e-4
1.069,   4.305e-4
1.071,   4.234e-4
1.073,   4.181e-4
1.075,   4.246e-4
1.077,   4.252e-4
1.079,   4.235e-4
1.081,   4.275e-4
1.083,   4.262e-4
1.085,   4.257e-4
1.087,   4.288e-4
1.089,   4.306e-4
1.091,   4.306e-4
1.093,   4.299e-4
1.095,   4.343e-4
1.097,   4.293e-4
1.099,   4.352e-4
1.101,   4.291e-4
1.103,   4.332e-4
1.105,   4.363e-4
1.107,   4.359e-4
1.109,   4.326e-4
1.111,   4.397e-4
1.113,   4.436e-4
1.115,   4.434e-4
1.117,   4.411e-4
1.119,   4.436e-4
1.121,   4.441e-4
1.123,   4.393e-4
1.125,   4.444e-4
1.127,   4.469e-4
1.129,   4.453e-4
1.131,   4.485e-4
1.133,   4.477e-4
1.135,   4.499e-4
1.137,   4.505e-4
1.139,   4.502e-4
1.141,   4.532e-4
1.143,   4.504e-4
1.145,   4.546e-4
1.147,   4.569e-4
1.149,   4.557e-4
1.151,   4.592e-4
1.153,   4.564e-4
1.155,   4.569e-4
1.157,   4.599e-4
1.159,   4.640e-4
1.161,   4.603e-4
1.163,   4.644e-4
1.165,   4.637e-4
1.167,   4.575e-4
1.169,   4.637e-4
1.171,   4.669e-4
1.173,   4.677e-4
1.175,   4.715e-4
1.177,   4.645e-4
1.179,   4.726e-4
1.181,   4.690e-4
1.183,   4.720e-4
1.185,   4.704e-4
1.187,   4.711e-4
1.189,   4.762e-4
1.191,   4.743e-4
1.193,   4.787e-4
1.195,   4.782e-4
1.197,   4.817e-4
1.199,   4.758e-4
1.201,   4.741e-4
1.203,   4.833e-4
1.205,   4.817e-4
1.207,   4.829e-4
1.209,   4.820e-4
1.211,   4.880e-4
1.213,   4.834e-4
1.215,   4.848e-4
1.217,   4.845e-4
1.219,   4.898e-4
1.221,   4.895e-4
1.223,   4.843e-4
1.225,   4.909e-4
1.227,   4.952e-4
1.229,   4.934e-4
1.231,   4.937e-4
1.233,   4.963e-4
1.235,   4.941e-4
1.237,   4.935e-4
1.239,   4.969e-4
1.241,   4.979e-4
1.243,   4.963e-4
1.245,   4.997e-4
1.247,   5.024e-4
1.249,   5.005e-4
1.251,   5.069e-4
1.253,   5.026e-4
1.255,   5.028e-4
1.257,   5.048e-4
1.259,   5.032e-4
1.261,   5.067e-4
1.263,   5.025e-4
1.265,   5.088e-4
1.267,   5.020e-4
1.269,   5.132e-4
1.271,   5.160e-4
1.273,   5.173e-4
1.275,   5.142e-4
1.277,   5.173e-4
1.279,   5.165e-4
1.281,   5.180e-4
1.283,   5.193e-4
1.285,   5.192e-4
1.287,   5.171e-4
1.289,   5.188e-4
1.291,   5.248e-4
1.293,   5.235e-4
1.295,   5.291e-4
1.297,   5.187e-4
1.299,   5.304e-4
1.301,   5.286e-4
1.303,   5.363e-4
1.305,   5.301e-4
1.307,   5.336e-4
1.309,   5.327e-4
1.311,   5.374e-4
1.313,   5.408e-4
1.315,   5.384e-4
1.317,   5.384e-4
1.319,   5.400e-4
1.321,   5.478e-4
1.323,   5.494e-4
1.325,   5.520e-4
1.327,   5.461e-4
1.329,   5.509e-4
1.331,   5.621e-4
1.333,   5.551e-4
1.335,   5.627e-4
1.337,   5.696e-4
1.339,   5.665e-4
1.341,   5.719e-4
1.343,   5.737e-4
1.345,   5.819e-4
1.347,   5.814e-4
1.349,   5.864e-4
1.351,   5.918e-4
1.353,   6.067e-4
1.355,   6.015e-4
1.357,   6.090e-4
1.359,   6.114e-4
1.361,   6.178e-4
1.363,   6.291e-4
1.365,   6.328e-4
1.367,   6.484e-4
1.369,   6.506e-4
1.371,   6.607e-4
1.373,   6.779e-4
1.375,   6.853e-4
1.377,   6.932e-4
1.379,   7.133e-4
1.381,   7.331e-4
1.383,   7.442e-4
1.385,   7.631e-4
1.387,   7.743e-4
1.389,   8.112e-4
1.391,   8.388e-4
1.393,   8.529e-4
1.395,   9.042e-4
1.397,   9.348e-4
1.399,   9.720e-4
1.401,   1.012e-3
1.403,   1.076e-3
1.405,   1.135e-3
1.407,   1.184e-3
1.409,   1.264e-3
1.411,   1.362e-3
1.413,   1.452e-3
1.415,   1.539e-3
1.417,   1.679e-3
1.419,   1.830e-3
1.421,   1.969e-3
1.423,   2.128e-3
1.425,   2.341e-3
1.427,   2.566e-3
1.429,   2.797e-3
1.431,   3.067e-3
1.433,   3.400e-3
1.435,   3.739e-3
1.437,   4.055e-3
1.439,   4.468e-3
1.441,   4.893e-3
1.443,   5.317e-3
1.445,   5.838e-3
1.447,   6.300e-3
1.449,   6.756e-3
1.451,   7.041e-3
1.453,   7.347e-3
1.455,   6.189e-3
1.457,   6.120e-3
1.459,   6.134e-3
1.461,   6.775e-3
1.463,   7.171e-3
1.465,   7.604e-3
1.467,   7.840e-3
1.469,   8.257e-3
1.471,   8.615e-3
1.473,   9.071e-3
1.475,   9.349e-3
1.477,   9.515e-3
1.479,   9.800e-3
1.481,   1.002e-2
1.483,   1.007e-2
1.485,   1.007e-2
1.487,   1.007e-2
1.489,   1.007e-2
1.491,   1.007e-2
1.493,   1.007e-2
1.495,   1.007e-2