File: Experimental Records and Raw Data/batch5/final400/B5_BEST_400_#1_High_Quality(#17)-218mV.txt
May 31, 2023   14:39:21
Linear Sweep Voltammetry
File: d:\current work\al_oer\electrochemical test data\batch 5\400\B5_BEST_400_#1_High_Quality(#17)-218mV.txt
Data Source:  Experiment
Instrument Model:  CHI660E
Header:
Note:

Init E (V) = 0.900

Final E (V) = 1.512

Scan Rate (V/s) = 0.010
Sample Interval (V) = 0.001
Quiet Time (sec) = 2
Sensitivity (A/V) = 0.001
Comp R (ohm) = 5.7

Results:

Channel 1:

Potential/V, Current/A
0.900,   2.831e-4
0.903,   3.325e-4
0.906,   3.342e-4
0.909,   3.254e-4
0.912,   3.235e-4
0.915,   3.165e-4
0.918,   3.101e-4
0.921,   3.035e-4
0.924,   3.012e-4
0.927,   2.958e-4
0.930,   2.932e-4
0.933,   2.871e-4
0.936,   2.873e-4
0.939,   2.883e-4
0.942,   2.789e-4
0.945,   2.797e-4
0.948,   2.774e-4
0.951,   2.677e-4
0.954,   2.691e-4
0.957,   2.684e-4
0.960,   2.710e-4
0.963,   2.657e-4
0.966,   2.600e-4
0.969,   2.567e-4
0.972,   2.565e-4
0.975,   2.579e-4
0.978,   2.623e-4
0.981,   2.559e-4
0.984,   2.499e-4
0.987,   2.516e-4
0.990,   2.519e-4
0.993,   2.569e-4
0.996,   2.547e-4
0.999,   2.455e-4
1.002,   2.480e-4
1.005,   2.463e-4
1.008,   2.448e-4
1.011,   2.541e-4
1.014,   2.474e-4
1.017,   2.370e-4
1.020,   2.383e-4
1.023,   2.436e-4
1.026,   2.487e-4
1.029,   2.474e-4
1.032,   2.380e-4
1.035,   2.372e-4
1.038,   2.436e-4
1.041,   2.454e-4
1.044,   2.471e-4
1.047,   2.404e-4
1.050,   2.405e-4
1.053,   2.425e-4
1.056,   2.442e-4
1.059,   2.508e-4
1.062,   2.412e-4
1.065,   2.403e-4
1.068,   2.444e-4
1.071,   2.455e-4
1.074,   2.492e-4
1.077,   2.459e-4
1.080,   2.416e-4
1.083,   2.452e-4
1.086,   2.481e-4
1.089,   2.538e-4
1.092,   2.566e-4
1.095,   2.472e-4
1.098,   2.512e-4
1.101,   2.510e-4
1.104,   2.536e-4
1.107,   2.548e-4
1.110,   2.546e-4
1.113,   2.516e-4
1.116,   2.533e-4
1.119,   2.576e-4
1.122,   2.622e-4
1.125,   2.640e-4
1.128,   2.580e-4
1.131,   2.633e-4
1.134,   2.635e-4
1.137,   2.679e-4
1.140,   2.658e-4
1.143,   2.666e-4
1.146,   2.695e-4
1.149,   2.724e-4
1.152,   2.738e-4
1.155,   2.776e-4
1.158,   2.741e-4
1.161,   2.758e-4
1.164,   2.776e-4
1.167,   2.781e-4
1.170,   2.801e-4
1.173,   2.852e-4
1.176,   2.825e-4
1.179,   2.817e-4
1.182,   2.870e-4
1.185,   2.908e-4
1.188,   2.930e-4
1.191,   2.889e-4
1.194,   2.893e-4
1.197,   2.935e-4
1.200,   3.024e-4
1.203,   3.083e-4
1.206,   3.008e-4
1.209,   2.969e-4
1.212,   2.981e-4
1.215,   3.026e-4
1.218,   3.113e-4
1.221,   3.110e-4
1.224,   3.008e-4
1.227,   3.036e-4
1.230,   3.068e-4
1.233,   3.175e-4
1.236,   3.211e-4
1.239,   3.064e-4
1.242,   3.105e-4
1.245,   3.101e-4
1.248,   3.241e-4
1.251,   3.289e-4
1.254,   3.193e-4
1.257,   3.118e-4
1.260,   3.162e-4
1.263,   3.237e-4
1.266,   3.316e-4
1.269,   3.294e-4
1.272,   3.141e-4
1.275,   3.201e-4
1.278,   3.234e-4
1.281,   3.404e-4
1.284,   3.413e-4
1.287,   3.235e-4
1.290,   3.186e-4
1.293,   3.270e-4
1.296,   3.366e-4
1.299,   3.521e-4
1.302,   3.412e-4
1.305,   3.258e-4
1.308,   3.289e-4
1.311,   3.398e-4
1.314,   3.601e-4
1.317,   3.550e-4
1.320,   3.370e-4
1.323,   3.363e-4
1.326,   3.403e-4
1.329,   3.635e-4
1.332,   3.677e-4
1.335,   3.563e-4
1.338,   3.437e-4
1.341,   3.549e-4
1.344,   3.694e-4
1.347,   3.855e-4
1.350,   3.794e-4
1.353,   3.641e-4
1.356,   3.668e-4
1.359,   3.819e-4
1.362,   4.010e-4
1.365,   3.914e-4
1.368,   3.857e-4
1.371,   3.979e-4
1.374,   4.046e-4
1.377,   4.258e-4
1.380,   4.303e-4
1.383,   4.142e-4
1.386,   4.190e-4
1.389,   4.283e-4
1.392,   4.501e-4
1.395,   4.711e-4
1.398,   4.703e-4
1.401,   4.756e-4
1.404,   4.908e-4
1.407,   5.237e-4
1.410,   5.732e-4
1.413,   5.853e-4
1.416,   5.962e-4
1.419,   6.385e-4
1.422,   6.959e-4
1.425,   7.886e-4
1.428,   8.707e-4
1.431,   9.108e-4
1.434,   1.013e-3
1.437,   1.129e-3
1.440,   1.343e-3
1.443,   1.546e-3
1.446,   1.680e-3
1.449,   1.911e-3
1.452,   2.186e-3
1.455,   2.579e-3
1.458,   2.965e-3
1.461,   3.417e-3
1.464,   3.747e-3
1.467,   4.330e-3
1.470,   4.851e-3
1.473,   5.691e-3
1.476,   6.504e-3
1.479,   6.932e-3
1.482,   7.651e-3
1.485,   8.325e-3
1.488,   9.007e-3
1.491,   9.670e-3
1.494,   9.941e-3
1.497,   1.007e-2
1.500,   1.007e-2
1.503,   1.007e-2
1.506,   1.007e-2
1.509,   1.007e-2
1.512,   1.007e-2