File: Experimental Records and Raw Data/batch5/final400/B5_BEST_400_#1_High_Quality(#24)-208mV.txt
May 31, 2023   14:44:44
Linear Sweep Voltammetry
File: d:\current work\al_oer\electrochemical test data\batch 5\400\B5_BEST_400_#1_High_Quality(#24)-208mV.txt
Data Source:  Experiment
Instrument Model:  CHI660E
Header:
Note:

Init E (V) = 0.905

Final E (V) = 1.542

Scan Rate (V/s) = 0.010
Sample Interval (V) = 0.001
Quiet Time (sec) = 2
Sensitivity (A/V) = 0.001
Comp R (ohm) = 3.5

Results:

Channel 1:
Ep = 1.499V
ip = 9.023e-3A
Ah = 1.408e-2C

Potential/V, Current/A
0.905,   4.705e-4
0.908,   5.365e-4
0.911,   5.332e-4
0.914,   5.189e-4
0.917,   5.013e-4
0.920,   4.940e-4
0.923,   4.828e-4
0.926,   4.677e-4
0.929,   4.580e-4
0.932,   4.476e-4
0.935,   4.415e-4
0.938,   4.336e-4
0.941,   4.216e-4
0.944,   4.167e-4
0.947,   4.110e-4
0.950,   4.017e-4
0.953,   3.964e-4
0.956,   3.915e-4
0.959,   3.879e-4
0.962,   3.838e-4
0.965,   3.747e-4
0.968,   3.736e-4
0.971,   3.695e-4
0.974,   3.653e-4
0.977,   3.609e-4
0.980,   3.573e-4
0.983,   3.572e-4
0.986,   3.541e-4
0.989,   3.477e-4
0.992,   3.470e-4
0.995,   3.454e-4
0.998,   3.440e-4
1.001,   3.388e-4
1.004,   3.362e-4
1.007,   3.380e-4
1.010,   3.382e-4
1.013,   3.317e-4
1.016,   3.324e-4
1.019,   3.309e-4
1.022,   3.296e-4
1.025,   3.294e-4
1.028,   3.265e-4
1.031,   3.263e-4
1.034,   3.259e-4
1.037,   3.233e-4
1.040,   3.241e-4
1.043,   3.232e-4
1.046,   3.237e-4
1.049,   3.233e-4
1.052,   3.196e-4
1.055,   3.218e-4
1.058,   3.223e-4
1.061,   3.199e-4
1.064,   3.218e-4
1.067,   3.194e-4
1.070,   3.230e-4
1.073,   3.227e-4
1.076,   3.183e-4
1.079,   3.220e-4
1.082,   3.218e-4
1.085,   3.221e-4
1.088,   3.227e-4
1.091,   3.219e-4
1.094,   3.257e-4
1.097,   3.269e-4
1.100,   3.240e-4
1.103,   3.263e-4
1.106,   3.271e-4
1.109,   3.293e-4
1.112,   3.291e-4
1.115,   3.275e-4
1.118,   3.335e-4
1.121,   3.343e-4
1.124,   3.324e-4
1.127,   3.357e-4
1.130,   3.344e-4
1.133,   3.391e-4
1.136,   3.426e-4
1.139,   3.376e-4
1.142,   3.426e-4
1.145,   3.467e-4
1.148,   3.440e-4
1.151,   3.490e-4
1.154,   3.466e-4
1.157,   3.536e-4
1.160,   3.531e-4
1.163,   3.517e-4
1.166,   3.561e-4
1.169,   3.597e-4
1.172,   3.570e-4
1.175,   3.632e-4
1.178,   3.627e-4
1.181,   3.676e-4
1.184,   3.696e-4
1.187,   3.671e-4
1.190,   3.722e-4
1.193,   3.744e-4
1.196,   3.761e-4
1.199,   3.787e-4
1.202,   3.784e-4
1.205,   3.863e-4
1.208,   3.865e-4
1.211,   3.872e-4
1.214,   3.902e-4
1.217,   3.939e-4
1.220,   3.964e-4
1.223,   4.007e-4
1.226,   3.971e-4
1.229,   4.059e-4
1.232,   4.061e-4
1.235,   4.090e-4
1.238,   4.114e-4
1.241,   4.148e-4
1.244,   4.198e-4
1.247,   4.222e-4
1.250,   4.215e-4
1.253,   4.261e-4
1.256,   4.310e-4
1.259,   4.324e-4
1.262,   4.334e-4
1.265,   4.383e-4
1.268,   4.436e-4
1.271,   4.474e-4
1.274,   4.458e-4
1.277,   4.535e-4
1.280,   4.557e-4
1.283,   4.591e-4
1.286,   4.657e-4
1.289,   4.642e-4
1.292,   4.748e-4
1.295,   4.780e-4
1.298,   4.791e-4
1.301,   4.850e-4
1.304,   4.874e-4
1.307,   4.972e-4
1.310,   4.984e-4
1.313,   4.982e-4
1.316,   5.119e-4
1.319,   5.132e-4
1.322,   5.153e-4
1.325,   5.240e-4
1.328,   5.264e-4
1.331,   5.407e-4
1.334,   5.404e-4
1.337,   5.482e-4
1.340,   5.596e-4
1.343,   5.667e-4
1.346,   5.699e-4
1.349,   5.796e-4
1.352,   5.842e-4
1.355,   5.980e-4
1.358,   6.107e-4
1.361,   6.168e-4
1.364,   6.273e-4
1.367,   6.424e-4
1.370,   6.527e-4
1.373,   6.718e-4
1.376,   6.784e-4
1.379,   7.026e-4
1.382,   7.145e-4
1.385,   7.283e-4
1.388,   7.532e-4
1.391,   7.721e-4
1.394,   7.928e-4
1.397,   8.221e-4
1.400,   8.423e-4
1.403,   8.863e-4
1.406,   9.224e-4
1.409,   9.556e-4
1.412,   1.014e-3
1.415,   1.069e-3
1.418,   1.135e-3
1.421,   1.205e-3
1.424,   1.277e-3
1.427,   1.397e-3
1.430,   1.519e-3
1.433,   1.620e-3
1.436,   1.788e-3
1.439,   1.954e-3
1.442,   2.148e-3
1.445,   2.361e-3
1.448,   2.587e-3
1.451,   2.889e-3
1.454,   3.185e-3
1.457,   3.441e-3
1.460,   3.819e-3
1.463,   4.118e-3
1.466,   4.531e-3
1.469,   4.880e-3
1.472,   5.238e-3
1.475,   5.662e-3
1.478,   6.125e-3
1.481,   6.502e-3
1.484,   7.005e-3
1.487,   7.346e-3
1.490,   7.876e-3
1.493,   8.320e-3
1.496,   8.711e-3
1.499,   9.130e-3
1.502,   9.607e-3
1.505,   9.625e-3
1.508,   5.341e-3
1.511,   3.908e-3
1.514,   4.048e-3
1.517,   5.240e-3
1.520,   4.469e-3
1.523,   4.124e-3
1.526,   4.163e-3
1.529,   3.864e-3
1.532,   4.057e-3
1.535,   3.583e-3
1.538,   3.344e-3
1.541,   3.834e-3
1.542,   4.218e-3