File: Experimental Records and Raw Data/batch5/final400/B5_BEST_400_#1_Full(#11)-246mV.txt
May 31, 2023   15:45:12
Linear Sweep Voltammetry
File: d:\current work\al_oer\electrochemical test data\batch 5\400\B5_BEST_400_#1_Full(#11)-246mV.txt
Data Source:  Experiment
Instrument Model:  CHI660E
Header:
Note:

Init E (V) = 0.899

Final E (V) = 1.570

Scan Rate (V/s) = 0.010
Sample Interval (V) = 0.001
Quiet Time (sec) = 2
Sensitivity (A/V) = 0.001
Comp R (ohm) = 6.4

Results:

Channel 1:

Potential/V, Current/A
0.899,   1.190e-4
0.902,   1.289e-4
0.905,   1.277e-4
0.908,   1.266e-4
0.911,   1.253e-4
0.914,   1.234e-4
0.917,   1.222e-4
0.920,   1.203e-4
0.923,   1.190e-4
0.926,   1.178e-4
0.929,   1.164e-4
0.932,   1.152e-4
0.935,   1.135e-4
0.938,   1.121e-4
0.941,   1.117e-4
0.944,   1.102e-4
0.947,   1.096e-4
0.950,   1.087e-4
0.953,   1.074e-4
0.956,   1.070e-4
0.959,   1.061e-4
0.962,   1.049e-4
0.965,   1.042e-4
0.968,   1.034e-4
0.971,   1.029e-4
0.974,   1.020e-4
0.977,   1.012e-4
0.980,   1.009e-4
0.983,   9.983e-5
0.986,   9.934e-5
0.989,   9.903e-5
0.992,   9.839e-5
0.995,   9.786e-5
0.998,   9.734e-5
1.001,   9.645e-5
1.004,   9.640e-5
1.007,   9.576e-5
1.010,   9.540e-5
1.013,   9.493e-5
1.016,   9.432e-5
1.019,   9.458e-5
1.022,   9.362e-5
1.025,   9.335e-5
1.028,   9.326e-5
1.031,   9.212e-5
1.034,   9.266e-5
1.037,   9.193e-5
1.040,   9.162e-5
1.043,   9.164e-5
1.046,   9.142e-5
1.049,   9.078e-5
1.052,   9.081e-5
1.055,   9.024e-5
1.058,   9.030e-5
1.061,   9.000e-5
1.064,   8.985e-5
1.067,   8.993e-5
1.070,   8.971e-5
1.073,   8.935e-5
1.076,   8.945e-5
1.079,   8.943e-5
1.082,   8.929e-5
1.085,   8.940e-5
1.088,   8.913e-5
1.091,   8.971e-5
1.094,   8.919e-5
1.097,   8.902e-5
1.100,   8.918e-5
1.103,   8.916e-5
1.106,   8.954e-5
1.109,   8.938e-5
1.112,   8.986e-5
1.115,   8.948e-5
1.118,   8.981e-5
1.121,   8.962e-5
1.124,   8.960e-5
1.127,   9.008e-5
1.130,   9.060e-5
1.133,   9.007e-5
1.136,   9.046e-5
1.139,   9.075e-5
1.142,   9.029e-5
1.145,   9.118e-5
1.148,   9.118e-5
1.151,   9.181e-5
1.154,   9.203e-5
1.157,   9.199e-5
1.160,   9.244e-5
1.163,   9.244e-5
1.166,   9.274e-5
1.169,   9.326e-5
1.172,   9.349e-5
1.175,   9.391e-5
1.178,   9.430e-5
1.181,   9.443e-5
1.184,   9.491e-5
1.187,   9.520e-5
1.190,   9.530e-5
1.193,   9.636e-5
1.196,   9.593e-5
1.199,   9.706e-5
1.202,   9.721e-5
1.205,   9.747e-5
1.208,   9.827e-5
1.211,   9.852e-5
1.214,   9.934e-5
1.217,   9.980e-5
1.220,   9.940e-5
1.223,   1.007e-4
1.226,   1.014e-4
1.229,   1.015e-4
1.232,   1.023e-4
1.235,   1.021e-4
1.238,   1.035e-4
1.241,   1.039e-4
1.244,   1.046e-4
1.247,   1.052e-4
1.250,   1.058e-4
1.253,   1.067e-4
1.256,   1.074e-4
1.259,   1.079e-4
1.262,   1.083e-4
1.265,   1.096e-4
1.268,   1.099e-4
1.271,   1.109e-4
1.274,   1.113e-4
1.277,   1.121e-4
1.280,   1.130e-4
1.283,   1.140e-4
1.286,   1.150e-4
1.289,   1.148e-4
1.292,   1.153e-4
1.295,   1.169e-4
1.298,   1.178e-4
1.301,   1.180e-4
1.304,   1.191e-4
1.307,   1.198e-4
1.310,   1.211e-4
1.313,   1.210e-4
1.316,   1.222e-4
1.319,   1.236e-4
1.322,   1.242e-4
1.325,   1.248e-4
1.328,   1.259e-4
1.331,   1.268e-4
1.334,   1.290e-4
1.337,   1.296e-4
1.340,   1.313e-4
1.343,   1.322e-4
1.346,   1.336e-4
1.349,   1.347e-4
1.352,   1.363e-4
1.355,   1.378e-4
1.358,   1.402e-4
1.361,   1.416e-4
1.364,   1.436e-4
1.367,   1.454e-4
1.370,   1.474e-4
1.373,   1.499e-4
1.376,   1.542e-4
1.379,   1.556e-4
1.382,   1.593e-4
1.385,   1.630e-4
1.388,   1.657e-4
1.391,   1.694e-4
1.394,   1.741e-4
1.397,   1.801e-4
1.400,   1.863e-4
1.403,   1.931e-4
1.406,   1.998e-4
1.409,   2.078e-4
1.412,   2.188e-4
1.415,   2.301e-4
1.418,   2.430e-4
1.421,   2.591e-4
1.424,   2.754e-4
1.427,   2.990e-4
1.430,   3.251e-4
1.433,   3.540e-4
1.436,   3.920e-4
1.439,   4.315e-4
1.442,   4.832e-4
1.445,   5.423e-4
1.448,   6.054e-4
1.451,   6.870e-4
1.454,   7.745e-4
1.457,   8.797e-4
1.460,   1.000e-3
1.463,   1.126e-3
1.466,   1.285e-3
1.469,   1.448e-3
1.472,   1.632e-3
1.475,   1.837e-3
1.478,   2.052e-3
1.481,   2.295e-3
1.484,   2.559e-3
1.487,   2.819e-3
1.490,   3.116e-3
1.493,   3.442e-3
1.496,   3.772e-3
1.499,   4.120e-3
1.502,   4.428e-3
1.505,   4.856e-3
1.508,   5.217e-3
1.511,   5.572e-3
1.514,   5.928e-3
1.517,   6.273e-3
1.520,   6.711e-3
1.523,   7.089e-3
1.526,   7.397e-3
1.529,   7.756e-3
1.532,   8.081e-3
1.535,   8.487e-3
1.538,   8.744e-3
1.541,   9.020e-3
1.544,   9.477e-3
1.547,   9.726e-3
1.550,   9.866e-3
1.553,   9.989e-3
1.556,   1.003e-2
1.559,   1.007e-2
1.562,   1.007e-2
1.565,   1.007e-2
1.568,   1.007e-2
1.570,   1.007e-2