File: Experimental Records and Raw Data/batch5/final400/B5_BEST_400_#1_High_Quality(#28)-188mV.txt
May 31, 2023   16:52:31
Linear Sweep Voltammetry
File: d:\current work\al_oer\electrochemical test data\batch 5\400\B5_BEST_400_#1_High_Quality(#28)-188mV.txt
Data Source:  Experiment
Instrument Model:  CHI660E
Header:
Note:

Init E (V) = 0.909

Final E (V) = 1.486

Scan Rate (V/s) = 0.010
Sample Interval (V) = 0.001
Quiet Time (sec) = 2
Sensitivity (A/V) = 0.001
Comp R (ohm) = 5.5

Results:

Channel 1:

Potential/V, Current/A
0.909,   6.154e-4
0.911,   8.343e-4
0.913,   8.503e-4
0.915,   8.057e-4
0.917,   8.391e-4
0.919,   8.397e-4
0.921,   7.745e-4
0.923,   7.972e-4
0.925,   8.206e-4
0.927,   7.686e-4
0.929,   7.667e-4
0.931,   7.971e-4
0.933,   7.496e-4
0.935,   7.380e-4
0.937,   7.757e-4
0.939,   7.282e-4
0.941,   7.215e-4
0.943,   7.529e-4
0.945,   7.185e-4
0.947,   6.946e-4
0.949,   7.397e-4
0.951,   7.318e-4
0.953,   6.789e-4
0.955,   7.166e-4
0.957,   7.197e-4
0.959,   6.821e-4
0.961,   6.893e-4
0.963,   7.120e-4
0.965,   6.786e-4
0.967,   6.810e-4
0.969,   7.157e-4
0.971,   6.696e-4
0.973,   6.749e-4
0.975,   7.109e-4
0.977,   6.709e-4
0.979,   6.546e-4
0.981,   7.054e-4
0.983,   6.677e-4
0.985,   6.506e-4
0.987,   6.972e-4
0.989,   6.665e-4
0.991,   6.526e-4
0.993,   6.921e-4
0.995,   6.621e-4
0.997,   6.516e-4
0.999,   6.909e-4
1.001,   6.566e-4
1.003,   6.444e-4
1.005,   6.754e-4
1.007,   6.658e-4
1.009,   6.336e-4
1.011,   6.688e-4
1.013,   6.741e-4
1.015,   6.369e-4
1.017,   6.614e-4
1.019,   6.673e-4
1.021,   6.389e-4
1.023,   6.553e-4
1.025,   6.841e-4
1.027,   6.414e-4
1.029,   6.453e-4
1.031,   6.862e-4
1.033,   6.392e-4
1.035,   6.350e-4
1.037,   6.881e-4
1.039,   6.435e-4
1.041,   6.306e-4
1.043,   6.792e-4
1.045,   6.486e-4
1.047,   6.408e-4
1.049,   6.687e-4
1.051,   6.536e-4
1.053,   6.430e-4
1.055,   6.780e-4
1.057,   6.631e-4
1.059,   6.396e-4
1.061,   6.661e-4
1.063,   6.736e-4
1.065,   6.296e-4
1.067,   6.577e-4
1.069,   6.853e-4
1.071,   6.431e-4
1.073,   6.509e-4
1.075,   6.731e-4
1.077,   6.574e-4
1.079,   6.455e-4
1.081,   6.891e-4
1.083,   6.471e-4
1.085,   6.568e-4
1.087,   7.013e-4
1.089,   6.572e-4
1.091,   6.532e-4
1.093,   6.998e-4
1.095,   6.677e-4
1.097,   6.568e-4
1.099,   7.028e-4
1.101,   6.675e-4
1.103,   6.526e-4
1.105,   7.017e-4
1.107,   6.692e-4
1.109,   6.746e-4
1.111,   6.956e-4
1.113,   6.865e-4
1.115,   6.632e-4
1.117,   6.990e-4
1.119,   7.040e-4
1.121,   6.603e-4
1.123,   6.972e-4
1.125,   7.137e-4
1.127,   6.898e-4
1.129,   6.913e-4
1.131,   7.157e-4
1.133,   6.936e-4
1.135,   6.995e-4
1.137,   7.299e-4
1.139,   6.979e-4
1.141,   6.950e-4
1.143,   7.459e-4
1.145,   6.978e-4
1.147,   6.956e-4
1.149,   7.519e-4
1.151,   7.021e-4
1.153,   6.922e-4
1.155,   7.463e-4
1.157,   7.281e-4
1.159,   7.045e-4
1.161,   7.498e-4
1.163,   7.239e-4
1.165,   7.164e-4
1.167,   7.429e-4
1.169,   7.375e-4
1.171,   7.125e-4
1.173,   7.407e-4
1.175,   7.447e-4
1.177,   7.133e-4
1.179,   7.412e-4
1.181,   7.664e-4
1.183,   7.194e-4
1.185,   7.227e-4
1.187,   7.829e-4
1.189,   7.325e-4
1.191,   7.372e-4
1.193,   7.811e-4
1.195,   7.405e-4
1.197,   7.349e-4
1.199,   7.973e-4
1.201,   7.468e-4
1.203,   7.350e-4
1.205,   8.075e-4
1.207,   7.628e-4
1.209,   7.338e-4
1.211,   7.933e-4
1.213,   7.743e-4
1.215,   7.314e-4
1.217,   7.916e-4
1.219,   7.905e-4
1.221,   7.508e-4
1.223,   7.867e-4
1.225,   7.982e-4
1.227,   7.638e-4
1.229,   7.881e-4
1.231,   8.205e-4
1.233,   7.614e-4
1.235,   7.907e-4
1.237,   8.396e-4
1.239,   7.638e-4
1.241,   7.938e-4
1.243,   8.403e-4
1.245,   7.846e-4
1.247,   7.994e-4
1.249,   8.427e-4
1.251,   7.899e-4
1.253,   7.960e-4
1.255,   8.550e-4
1.257,   7.935e-4
1.259,   7.999e-4
1.261,   8.593e-4
1.263,   8.093e-4
1.265,   8.003e-4
1.267,   8.638e-4
1.269,   8.234e-4
1.271,   8.088e-4
1.273,   8.624e-4
1.275,   8.304e-4
1.277,   8.263e-4
1.279,   8.717e-4
1.281,   8.397e-4
1.283,   8.272e-4
1.285,   8.748e-4
1.287,   8.567e-4
1.289,   8.325e-4
1.291,   8.730e-4
1.293,   8.718e-4
1.295,   8.454e-4
1.297,   8.805e-4
1.299,   8.861e-4
1.301,   8.514e-4
1.303,   8.936e-4
1.305,   8.904e-4
1.307,   8.656e-4
1.309,   8.957e-4
1.311,   9.179e-4
1.313,   8.700e-4
1.315,   9.107e-4
1.317,   9.209e-4
1.319,   8.828e-4
1.321,   8.988e-4
1.323,   9.422e-4
1.325,   9.142e-4
1.327,   8.987e-4
1.329,   9.409e-4
1.331,   9.306e-4
1.333,   9.190e-4
1.335,   9.566e-4
1.337,   9.644e-4
1.339,   9.354e-4
1.341,   9.623e-4
1.343,   9.893e-4
1.345,   9.555e-4
1.347,   9.809e-4
1.349,   1.007e-3
1.351,   9.919e-4
1.353,   9.887e-4
1.355,   1.042e-3
1.357,   1.002e-3
1.359,   1.013e-3
1.361,   1.079e-3
1.363,   1.026e-3
1.365,   1.031e-3
1.367,   1.122e-3
1.369,   1.077e-3
1.371,   1.061e-3
1.373,   1.155e-3
1.375,   1.130e-3
1.377,   1.102e-3
1.379,   1.179e-3
1.381,   1.173e-3
1.383,   1.165e-3
1.385,   1.228e-3
1.387,   1.252e-3
1.389,   1.218e-3
1.391,   1.301e-3
1.393,   1.335e-3
1.395,   1.304e-3
1.397,   1.371e-3
1.399,   1.470e-3
1.401,   1.408e-3
1.403,   1.474e-3
1.405,   1.576e-3
1.407,   1.556e-3
1.409,   1.630e-3
1.411,   1.738e-3
1.413,   1.751e-3
1.415,   1.814e-3
1.417,   2.053e-3
1.419,   1.978e-3
1.421,   2.072e-3
1.423,   2.348e-3
1.425,   2.362e-3
1.427,   2.429e-3
1.429,   2.801e-3
1.431,   2.878e-3
1.433,   2.961e-3
1.435,   3.340e-3
1.437,   3.509e-3
1.439,   3.694e-3
1.441,   4.122e-3
1.443,   4.403e-3
1.445,   4.566e-3
1.447,   5.247e-3
1.449,   5.669e-3
1.451,   5.862e-3
1.453,   6.281e-3
1.455,   6.840e-3
1.457,   7.317e-3
1.459,   7.720e-3
1.461,   8.313e-3
1.463,   8.747e-3
1.465,   9.228e-3
1.467,   9.738e-3
1.469,   9.884e-3
1.471,   9.986e-3
1.473,   1.007e-2
1.475,   1.007e-2
1.477,   1.007e-2
1.479,   1.007e-2
1.481,   1.007e-2
1.483,   1.007e-2
1.485,   1.007e-2
1.486,   1.007e-2