File: Experimental Records and Raw Data/batch5/final400/B5_BEST_400_#1_Full(#13)-190mV.txt
May 31, 2023   17:01:06
Linear Sweep Voltammetry
File: d:\current work\al_oer\electrochemical test data\batch 5\400\B5_BEST_400_#1_Full(#13)-190mV.txt
Data Source:  Experiment
Instrument Model:  CHI660E
Header:
Note:

Init E (V) = 0.895

Final E (V) = 1.481

Scan Rate (V/s) = 0.010
Sample Interval (V) = 0.001
Quiet Time (sec) = 2
Sensitivity (A/V) = 0.001
Comp R (ohm) = 6.0

Results:

Channel 1:

Potential/V, Current/A
0.895,   4.127e-4
0.897,   5.068e-4
0.899,   5.448e-4
0.901,   4.985e-4
0.903,   5.327e-4
0.905,   4.830e-4
0.907,   4.989e-4
0.909,   4.995e-4
0.911,   4.826e-4
0.913,   5.080e-4
0.915,   4.732e-4
0.917,   4.968e-4
0.919,   4.657e-4
0.921,   4.719e-4
0.923,   4.743e-4
0.925,   4.592e-4
0.927,   4.773e-4
0.929,   4.556e-4
0.931,   4.710e-4
0.933,   4.468e-4
0.935,   4.513e-4
0.937,   4.455e-4
0.939,   4.468e-4
0.941,   4.647e-4
0.943,   4.356e-4
0.945,   4.739e-4
0.947,   4.235e-4
0.949,   4.513e-4
0.951,   4.325e-4
0.953,   4.316e-4
0.955,   4.419e-4
0.957,   4.240e-4
0.959,   4.526e-4
0.961,   4.187e-4
0.963,   4.436e-4
0.965,   4.116e-4
0.967,   4.306e-4
0.969,   4.241e-4
0.971,   4.246e-4
0.973,   4.372e-4
0.975,   4.203e-4
0.977,   4.325e-4
0.979,   4.118e-4
0.981,   4.264e-4
0.983,   4.091e-4
0.985,   4.198e-4
0.987,   4.244e-4
0.989,   4.231e-4
0.991,   4.270e-4
0.993,   4.136e-4
0.995,   4.199e-4
0.997,   4.102e-4
0.999,   4.139e-4
1.001,   4.174e-4
1.003,   4.154e-4
1.005,   4.250e-4
1.007,   4.084e-4
1.009,   4.148e-4
1.011,   4.089e-4
1.013,   4.092e-4
1.015,   4.165e-4
1.017,   4.138e-4
1.019,   4.339e-4
1.021,   4.043e-4
1.023,   4.280e-4
1.025,   4.046e-4
1.027,   4.115e-4
1.029,   4.091e-4
1.031,   4.110e-4
1.033,   4.219e-4
1.035,   4.108e-4
1.037,   4.229e-4
1.039,   4.089e-4
1.041,   4.114e-4
1.043,   4.186e-4
1.045,   4.102e-4
1.047,   4.204e-4
1.049,   4.100e-4
1.051,   4.303e-4
1.053,   4.094e-4
1.055,   4.195e-4
1.057,   4.101e-4
1.059,   4.151e-4
1.061,   4.160e-4
1.063,   4.166e-4
1.065,   4.235e-4
1.067,   4.168e-4
1.069,   4.198e-4
1.071,   4.186e-4
1.073,   4.164e-4
1.075,   4.268e-4
1.077,   4.222e-4
1.079,   4.288e-4
1.081,   4.248e-4
1.083,   4.268e-4
1.085,   4.212e-4
1.087,   4.268e-4
1.089,   4.253e-4
1.091,   4.245e-4
1.093,   4.367e-4
1.095,   4.292e-4
1.097,   4.502e-4
1.099,   4.123e-4
1.101,   4.330e-4
1.103,   4.419e-4
1.105,   4.275e-4
1.107,   4.454e-4
1.109,   4.301e-4
1.111,   4.551e-4
1.113,   4.373e-4
1.115,   4.476e-4
1.117,   4.396e-4
1.119,   4.384e-4
1.121,   4.492e-4
1.123,   4.330e-4
1.125,   4.657e-4
1.127,   4.407e-4
1.129,   4.693e-4
1.131,   4.459e-4
1.133,   4.458e-4
1.135,   4.703e-4
1.137,   4.422e-4
1.139,   4.766e-4
1.141,   4.495e-4
1.143,   4.804e-4
1.145,   4.607e-4
1.147,   4.609e-4
1.149,   4.764e-4
1.151,   4.518e-4
1.153,   4.799e-4
1.155,   4.575e-4
1.157,   4.837e-4
1.159,   4.661e-4
1.161,   4.777e-4
1.163,   4.813e-4
1.165,   4.663e-4
1.167,   4.888e-4
1.169,   4.720e-4
1.171,   4.935e-4
1.173,   4.905e-4
1.175,   4.866e-4
1.177,   5.047e-4
1.179,   4.671e-4
1.181,   4.973e-4
1.183,   4.856e-4
1.185,   4.878e-4
1.187,   5.015e-4
1.189,   5.051e-4
1.191,   5.095e-4
1.193,   4.966e-4
1.195,   5.043e-4
1.197,   4.993e-4
1.199,   5.150e-4
1.201,   5.122e-4
1.203,   5.134e-4
1.205,   5.253e-4
1.207,   5.112e-4
1.209,   5.093e-4
1.211,   5.106e-4
1.213,   5.267e-4
1.215,   5.204e-4
1.217,   5.287e-4
1.219,   5.452e-4
1.221,   5.224e-4
1.223,   5.355e-4
1.225,   5.239e-4
1.227,   5.297e-4
1.229,   5.412e-4
1.231,   5.189e-4
1.233,   5.609e-4
1.235,   5.331e-4
1.237,   5.499e-4
1.239,   5.425e-4
1.241,   5.414e-4
1.243,   5.549e-4
1.245,   5.432e-4
1.247,   5.696e-4
1.249,   5.524e-4
1.251,   5.655e-4
1.253,   5.549e-4
1.255,   5.624e-4
1.257,   5.544e-4
1.259,   5.527e-4
1.261,   5.910e-4
1.263,   5.547e-4
1.265,   5.809e-4
1.267,   5.690e-4
1.269,   5.564e-4
1.271,   5.830e-4
1.273,   5.527e-4
1.275,   6.006e-4
1.277,   5.692e-4
1.279,   5.922e-4
1.281,   5.900e-4
1.283,   5.889e-4
1.285,   5.995e-4
1.287,   5.725e-4
1.289,   6.147e-4
1.291,   5.753e-4
1.293,   6.210e-4
1.295,   6.039e-4
1.297,   6.030e-4
1.299,   6.207e-4
1.301,   5.929e-4
1.303,   6.282e-4
1.305,   5.789e-4
1.307,   6.408e-4
1.309,   6.080e-4
1.311,   6.313e-4
1.313,   6.348e-4
1.315,   6.086e-4
1.317,   6.434e-4
1.319,   6.041e-4
1.321,   6.685e-4
1.323,   6.212e-4
1.325,   6.782e-4
1.327,   6.500e-4
1.329,   6.556e-4
1.331,   6.680e-4
1.333,   6.434e-4
1.335,   7.002e-4
1.337,   6.422e-4
1.339,   7.126e-4
1.341,   6.710e-4
1.343,   7.023e-4
1.345,   6.983e-4
1.347,   6.790e-4
1.349,   7.328e-4
1.351,   6.858e-4
1.353,   7.569e-4
1.355,   7.060e-4
1.357,   7.483e-4
1.359,   7.457e-4
1.361,   7.340e-4
1.363,   7.903e-4
1.365,   7.441e-4
1.367,   8.109e-4
1.369,   7.606e-4
1.371,   8.130e-4
1.373,   8.134e-4
1.375,   8.075e-4
1.377,   8.649e-4
1.379,   8.193e-4
1.381,   8.987e-4
1.383,   8.498e-4
1.385,   9.219e-4
1.387,   8.970e-4
1.389,   9.487e-4
1.391,   9.519e-4
1.393,   9.770e-4
1.395,   1.066e-3
1.397,   1.005e-3
1.399,   1.142e-3
1.401,   1.084e-3
1.403,   1.191e-3
1.405,   1.193e-3
1.407,   1.277e-3
1.409,   1.392e-3
1.411,   1.369e-3
1.413,   1.569e-3
1.415,   1.531e-3
1.417,   1.758e-3
1.419,   1.774e-3
1.421,   1.950e-3
1.423,   2.102e-3
1.425,   2.236e-3
1.427,   2.479e-3
1.429,   2.589e-3
1.431,   2.932e-3
1.433,   3.063e-3
1.435,   3.471e-3
1.437,   3.701e-3
1.439,   4.041e-3
1.441,   4.592e-3
1.443,   4.858e-3
1.445,   5.611e-3
1.447,   5.767e-3
1.449,   6.567e-3
1.451,   7.034e-3
1.453,   7.664e-3
1.455,   8.375e-3
1.457,   8.902e-3
1.459,   9.635e-3
1.461,   1.000e-2
1.463,   1.007e-2
1.465,   1.007e-2
1.467,   1.007e-2
1.469,   1.007e-2
1.471,   1.007e-2
1.473,   1.007e-2
1.475,   1.007e-2
1.477,   1.007e-2
1.479,   1.007e-2
1.481,   1.007e-2