File: Experimental Records and Raw Data/batch5/final400/B5_BEST_400_#1_Full(#3)-209mV.txt
May 30, 2023   15:36:48
Linear Sweep Voltammetry
File: d:\current work\al_oer\electrochemical test data\batch 5\400\B5_BEST_400_#1_Full(#3)-209mV.txt
Data Source:  Experiment
Instrument Model:  CHI660E
Header:
Note:

Init E (V) = 0.900

Final E (V) = 1.509

Scan Rate (V/s) = 0.010
Sample Interval (V) = 0.001
Quiet Time (sec) = 2
Sensitivity (A/V) = 0.001
Comp R (ohm) = 5.0

Results:

Channel 1:

Potential/V, Current/A
0.900,   2.996e-4
0.903,   3.255e-4
0.906,   3.000e-4
0.909,   2.814e-4
0.912,   2.641e-4
0.915,   2.510e-4
0.918,   2.410e-4
0.921,   2.324e-4
0.924,   2.235e-4
0.927,   2.161e-4
0.930,   2.113e-4
0.933,   2.053e-4
0.936,   2.005e-4
0.939,   1.973e-4
0.942,   1.921e-4
0.945,   1.910e-4
0.948,   1.893e-4
0.951,   1.849e-4
0.954,   1.834e-4
0.957,   1.785e-4
0.960,   1.778e-4
0.963,   1.762e-4
0.966,   1.746e-4
0.969,   1.728e-4
0.972,   1.725e-4
0.975,   1.709e-4
0.978,   1.695e-4
0.981,   1.676e-4
0.984,   1.664e-4
0.987,   1.658e-4
0.990,   1.647e-4
0.993,   1.644e-4
0.996,   1.641e-4
0.999,   1.638e-4
1.002,   1.616e-4
1.005,   1.623e-4
1.008,   1.609e-4
1.011,   1.608e-4
1.014,   1.598e-4
1.017,   1.597e-4
1.020,   1.604e-4
1.023,   1.592e-4
1.026,   1.589e-4
1.029,   1.585e-4
1.032,   1.595e-4
1.035,   1.573e-4
1.038,   1.592e-4
1.041,   1.576e-4
1.044,   1.591e-4
1.047,   1.584e-4
1.050,   1.583e-4
1.053,   1.586e-4
1.056,   1.584e-4
1.059,   1.576e-4
1.062,   1.583e-4
1.065,   1.605e-4
1.068,   1.611e-4
1.071,   1.600e-4
1.074,   1.607e-4
1.077,   1.591e-4
1.080,   1.599e-4
1.083,   1.611e-4
1.086,   1.615e-4
1.089,   1.626e-4
1.092,   1.629e-4
1.095,   1.637e-4
1.098,   1.660e-4
1.101,   1.651e-4
1.104,   1.649e-4
1.107,   1.668e-4
1.110,   1.692e-4
1.113,   1.686e-4
1.116,   1.694e-4
1.119,   1.706e-4
1.122,   1.708e-4
1.125,   1.695e-4
1.128,   1.721e-4
1.131,   1.732e-4
1.134,   1.749e-4
1.137,   1.753e-4
1.140,   1.762e-4
1.143,   1.782e-4
1.146,   1.785e-4
1.149,   1.789e-4
1.152,   1.801e-4
1.155,   1.806e-4
1.158,   1.822e-4
1.161,   1.837e-4
1.164,   1.858e-4
1.167,   1.850e-4
1.170,   1.863e-4
1.173,   1.887e-4
1.176,   1.895e-4
1.179,   1.924e-4
1.182,   1.927e-4
1.185,   1.943e-4
1.188,   1.959e-4
1.191,   1.970e-4
1.194,   1.984e-4
1.197,   2.018e-4
1.200,   2.012e-4
1.203,   2.031e-4
1.206,   2.032e-4
1.209,   2.059e-4
1.212,   2.061e-4
1.215,   2.094e-4
1.218,   2.110e-4
1.221,   2.124e-4
1.224,   2.132e-4
1.227,   2.161e-4
1.230,   2.175e-4
1.233,   2.189e-4
1.236,   2.207e-4
1.239,   2.244e-4
1.242,   2.234e-4
1.245,   2.232e-4
1.248,   2.277e-4
1.251,   2.282e-4
1.254,   2.312e-4
1.257,   2.312e-4
1.260,   2.324e-4
1.263,   2.362e-4
1.266,   2.377e-4
1.269,   2.394e-4
1.272,   2.400e-4
1.275,   2.430e-4
1.278,   2.461e-4
1.281,   2.453e-4
1.284,   2.492e-4
1.287,   2.504e-4
1.290,   2.521e-4
1.293,   2.561e-4
1.296,   2.561e-4
1.299,   2.609e-4
1.302,   2.596e-4
1.305,   2.632e-4
1.308,   2.647e-4
1.311,   2.673e-4
1.314,   2.682e-4
1.317,   2.731e-4
1.320,   2.748e-4
1.323,   2.778e-4
1.326,   2.832e-4
1.329,   2.847e-4
1.332,   2.889e-4
1.335,   2.925e-4
1.338,   2.970e-4
1.341,   3.005e-4
1.344,   3.047e-4
1.347,   3.088e-4
1.350,   3.146e-4
1.353,   3.208e-4
1.356,   3.232e-4
1.359,   3.316e-4
1.362,   3.362e-4
1.365,   3.420e-4
1.368,   3.492e-4
1.371,   3.590e-4
1.374,   3.678e-4
1.377,   3.776e-4
1.380,   3.898e-4
1.383,   4.059e-4
1.386,   4.182e-4
1.389,   4.361e-4
1.392,   4.574e-4
1.395,   4.809e-4
1.398,   5.065e-4
1.401,   5.370e-4
1.404,   5.775e-4
1.407,   6.204e-4
1.410,   6.743e-4
1.413,   7.383e-4
1.416,   8.118e-4
1.419,   9.000e-4
1.422,   9.963e-4
1.425,   1.113e-3
1.428,   1.257e-3
1.431,   1.405e-3
1.434,   1.585e-3
1.437,   1.781e-3
1.440,   1.989e-3
1.443,   2.214e-3
1.446,   2.458e-3
1.449,   2.733e-3
1.452,   3.029e-3
1.455,   3.331e-3
1.458,   3.642e-3
1.461,   3.989e-3
1.464,   4.323e-3
1.467,   4.690e-3
1.470,   5.061e-3
1.473,   5.449e-3
1.476,   5.841e-3
1.479,   6.248e-3
1.482,   6.689e-3
1.485,   7.092e-3
1.488,   7.526e-3
1.491,   7.970e-3
1.494,   8.416e-3
1.497,   8.790e-3
1.500,   9.117e-3
1.503,   9.540e-3
1.506,   9.905e-3
1.509,   1.007e-2