File: Experimental Records and Raw Data/batch5/final400/B5_BEST_400_#1_Full(#4)-188mV.txt
May 31, 2023   14:27:31
Linear Sweep Voltammetry
File: d:\current work\al_oer\electrochemical test data\batch 5\400\B5_BEST_400_#1_Full(#4)-188mV.txt
Data Source:  Experiment
Instrument Model:  CHI660E
Header:
Note:

Init E (V) = 0.899

Final E (V) = 1.459

Scan Rate (V/s) = 0.010
Sample Interval (V) = 0.001
Quiet Time (sec) = 2
Sensitivity (A/V) = 0.001
Comp R (ohm) = 5.9

Results:

Channel 1:

Potential/V, Current/A
0.899,   4.922e-4
0.901,   5.140e-4
0.903,   4.870e-4
0.905,   4.619e-4
0.907,   4.394e-4
0.909,   4.197e-4
0.911,   4.075e-4
0.913,   3.933e-4
0.915,   3.864e-4
0.917,   3.752e-4
0.919,   3.682e-4
0.921,   3.604e-4
0.923,   3.526e-4
0.925,   3.446e-4
0.927,   3.391e-4
0.929,   3.378e-4
0.931,   3.324e-4
0.933,   3.272e-4
0.935,   3.182e-4
0.937,   3.241e-4
0.939,   3.159e-4
0.941,   3.143e-4
0.943,   3.106e-4
0.945,   3.079e-4
0.947,   3.022e-4
0.949,   3.028e-4
0.951,   2.994e-4
0.953,   2.984e-4
0.955,   2.963e-4
0.957,   2.936e-4
0.959,   2.911e-4
0.961,   2.921e-4
0.963,   2.894e-4
0.965,   2.892e-4
0.967,   2.861e-4
0.969,   2.849e-4
0.971,   2.818e-4
0.973,   2.831e-4
0.975,   2.818e-4
0.977,   2.800e-4
0.979,   2.795e-4
0.981,   2.793e-4
0.983,   2.776e-4
0.985,   2.780e-4
0.987,   2.768e-4
0.989,   2.727e-4
0.991,   2.741e-4
0.993,   2.769e-4
0.995,   2.753e-4
0.997,   2.755e-4
0.999,   2.721e-4
1.001,   2.718e-4
1.003,   2.723e-4
1.005,   2.731e-4
1.007,   2.715e-4
1.009,   2.741e-4
1.011,   2.707e-4
1.013,   2.713e-4
1.015,   2.701e-4
1.017,   2.680e-4
1.019,   2.713e-4
1.021,   2.718e-4
1.023,   2.694e-4
1.025,   2.666e-4
1.027,   2.661e-4
1.029,   2.713e-4
1.031,   2.692e-4
1.033,   2.683e-4
1.035,   2.681e-4
1.037,   2.695e-4
1.039,   2.742e-4
1.041,   2.634e-4
1.043,   2.674e-4
1.045,   2.689e-4
1.047,   2.696e-4
1.049,   2.714e-4
1.051,   2.698e-4
1.053,   2.727e-4
1.055,   2.734e-4
1.057,   2.719e-4
1.059,   2.722e-4
1.061,   2.699e-4
1.063,   2.694e-4
1.065,   2.758e-4
1.067,   2.685e-4
1.069,   2.718e-4
1.071,   2.724e-4
1.073,   2.762e-4
1.075,   2.766e-4
1.077,   2.770e-4
1.079,   2.729e-4
1.081,   2.762e-4
1.083,   2.743e-4
1.085,   2.740e-4
1.087,   2.725e-4
1.089,   2.729e-4
1.091,   2.766e-4
1.093,   2.784e-4
1.095,   2.794e-4
1.097,   2.783e-4
1.099,   2.816e-4
1.101,   2.804e-4
1.103,   2.807e-4
1.105,   2.826e-4
1.107,   2.818e-4
1.109,   2.805e-4
1.111,   2.828e-4
1.113,   2.828e-4
1.115,   2.807e-4
1.117,   2.851e-4
1.119,   2.854e-4
1.121,   2.847e-4
1.123,   2.848e-4
1.125,   2.876e-4
1.127,   2.841e-4
1.129,   2.876e-4
1.131,   2.897e-4
1.133,   2.898e-4
1.135,   2.875e-4
1.137,   2.893e-4
1.139,   2.899e-4
1.141,   2.920e-4
1.143,   2.937e-4
1.145,   2.954e-4
1.147,   2.963e-4
1.149,   2.980e-4
1.151,   2.956e-4
1.153,   2.991e-4
1.155,   2.987e-4
1.157,   2.975e-4
1.159,   2.963e-4
1.161,   3.004e-4
1.163,   3.005e-4
1.165,   3.006e-4
1.167,   3.036e-4
1.169,   3.018e-4
1.171,   3.025e-4
1.173,   3.041e-4
1.175,   3.078e-4
1.177,   3.057e-4
1.179,   3.054e-4
1.181,   3.078e-4
1.183,   3.025e-4
1.185,   3.066e-4
1.187,   3.100e-4
1.189,   3.095e-4
1.191,   3.082e-4
1.193,   3.063e-4
1.195,   3.163e-4
1.197,   3.117e-4
1.199,   3.135e-4
1.201,   3.162e-4
1.203,   3.203e-4
1.205,   3.201e-4
1.207,   3.150e-4
1.209,   3.171e-4
1.211,   3.178e-4
1.213,   3.186e-4
1.215,   3.204e-4
1.217,   3.220e-4
1.219,   3.171e-4
1.221,   3.221e-4
1.223,   3.246e-4
1.225,   3.245e-4
1.227,   3.247e-4
1.229,   3.226e-4
1.231,   3.255e-4
1.233,   3.347e-4
1.235,   3.293e-4
1.237,   3.300e-4
1.239,   3.295e-4
1.241,   3.278e-4
1.243,   3.360e-4
1.245,   3.338e-4
1.247,   3.332e-4
1.249,   3.377e-4
1.251,   3.366e-4
1.253,   3.383e-4
1.255,   3.372e-4
1.257,   3.416e-4
1.259,   3.422e-4
1.261,   3.406e-4
1.263,   3.402e-4
1.265,   3.486e-4
1.267,   3.403e-4
1.269,   3.468e-4
1.271,   3.434e-4
1.273,   3.493e-4
1.275,   3.491e-4
1.277,   3.469e-4
1.279,   3.529e-4
1.281,   3.571e-4
1.283,   3.528e-4
1.285,   3.573e-4
1.287,   3.584e-4
1.289,   3.532e-4
1.291,   3.592e-4
1.293,   3.642e-4
1.295,   3.606e-4
1.297,   3.694e-4
1.299,   3.634e-4
1.301,   3.701e-4
1.303,   3.731e-4
1.305,   3.718e-4
1.307,   3.746e-4
1.309,   3.741e-4
1.311,   3.759e-4
1.313,   3.851e-4
1.315,   3.842e-4
1.317,   3.828e-4
1.319,   3.841e-4
1.321,   3.889e-4
1.323,   3.937e-4
1.325,   3.923e-4
1.327,   3.980e-4
1.329,   4.002e-4
1.331,   4.044e-4
1.333,   4.056e-4
1.335,   4.140e-4
1.337,   4.120e-4
1.339,   4.182e-4
1.341,   4.195e-4
1.343,   4.301e-4
1.345,   4.324e-4
1.347,   4.338e-4
1.349,   4.382e-4
1.351,   4.428e-4
1.353,   4.546e-4
1.355,   4.592e-4
1.357,   4.652e-4
1.359,   4.684e-4
1.361,   4.770e-4
1.363,   4.894e-4
1.365,   4.972e-4
1.367,   5.014e-4
1.369,   5.170e-4
1.371,   5.278e-4
1.373,   5.384e-4
1.375,   5.447e-4
1.377,   5.697e-4
1.379,   5.898e-4
1.381,   5.966e-4
1.383,   6.239e-4
1.385,   6.472e-4
1.387,   6.717e-4
1.389,   7.058e-4
1.391,   7.352e-4
1.393,   7.701e-4
1.395,   8.082e-4
1.397,   8.499e-4
1.399,   9.044e-4
1.401,   9.666e-4
1.403,   1.025e-3
1.405,   1.093e-3
1.407,   1.179e-3
1.409,   1.286e-3
1.411,   1.397e-3
1.413,   1.514e-3
1.415,   1.651e-3
1.417,   1.839e-3
1.419,   1.991e-3
1.421,   2.210e-3
1.423,   2.445e-3
1.425,   2.708e-3
1.427,   3.017e-3
1.429,   3.340e-3
1.431,   3.740e-3
1.433,   4.219e-3
1.435,   4.667e-3
1.437,   5.089e-3
1.439,   5.630e-3
1.441,   6.189e-3
1.443,   6.741e-3
1.445,   7.327e-3
1.447,   8.033e-3
1.449,   8.608e-3
1.451,   9.007e-3
1.453,   9.326e-3
1.455,   9.578e-3
1.457,   9.857e-3
1.459,   1.003e-2