File: Experimental Records and Raw Data/batch5/final400/B5_BEST_400_#1_Full(#10)-177mV.txt
May 31, 2023   14:15:05
Linear Sweep Voltammetry
File: d:\current work\al_oer\electrochemical test data\batch 5\400\B5_BEST_400_#1_Full(#10)-177mV.txt
Data Source:  Experiment
Instrument Model:  CHI660E
Header:
Note:

Init E (V) = 0.901

Final E (V) = 1.484

Scan Rate (V/s) = 0.010
Sample Interval (V) = 0.001
Quiet Time (sec) = 2
Sensitivity (A/V) = 0.001
Comp R (ohm) = 5.0

Results:

Channel 1:

Potential/V, Current/A
0.901,   4.153e-4
0.903,   5.786e-4
0.905,   5.825e-4
0.907,   5.947e-4
0.909,   5.733e-4
0.911,   5.657e-4
0.913,   5.765e-4
0.915,   5.651e-4
0.917,   5.489e-4
0.919,   5.593e-4
0.921,   5.534e-4
0.923,   5.413e-4
0.925,   5.458e-4
0.927,   5.430e-4
0.929,   5.266e-4
0.931,   5.367e-4
0.933,   5.302e-4
0.935,   5.193e-4
0.937,   5.249e-4
0.939,   5.263e-4
0.941,   5.139e-4
0.943,   5.216e-4
0.945,   5.167e-4
0.947,   5.052e-4
0.949,   5.194e-4
0.951,   5.181e-4
0.953,   4.937e-4
0.955,   5.043e-4
0.957,   5.032e-4
0.959,   4.928e-4
0.961,   5.055e-4
0.963,   4.958e-4
0.965,   4.884e-4
0.967,   4.950e-4
0.969,   4.974e-4
0.971,   4.882e-4
0.973,   4.906e-4
0.975,   4.931e-4
0.977,   4.851e-4
0.979,   4.851e-4
0.981,   4.962e-4
0.983,   4.806e-4
0.985,   4.873e-4
0.987,   4.871e-4
0.989,   4.872e-4
0.991,   4.825e-4
0.993,   4.801e-4
0.995,   4.839e-4
0.997,   4.817e-4
0.999,   4.778e-4
1.001,   4.818e-4
1.003,   4.795e-4
1.005,   4.792e-4
1.007,   4.815e-4
1.009,   4.758e-4
1.011,   4.746e-4
1.013,   4.840e-4
1.015,   4.764e-4
1.017,   4.708e-4
1.019,   4.852e-4
1.021,   4.767e-4
1.023,   4.782e-4
1.025,   4.803e-4
1.027,   4.798e-4
1.029,   4.800e-4
1.031,   4.805e-4
1.033,   4.771e-4
1.035,   4.783e-4
1.037,   4.833e-4
1.039,   4.758e-4
1.041,   4.780e-4
1.043,   4.878e-4
1.045,   4.818e-4
1.047,   4.777e-4
1.049,   4.907e-4
1.051,   4.860e-4
1.053,   4.816e-4
1.055,   4.876e-4
1.057,   4.856e-4
1.059,   4.803e-4
1.061,   4.953e-4
1.063,   4.874e-4
1.065,   4.789e-4
1.067,   4.937e-4
1.069,   4.929e-4
1.071,   4.822e-4
1.073,   5.019e-4
1.075,   4.913e-4
1.077,   4.844e-4
1.079,   5.031e-4
1.081,   4.942e-4
1.083,   4.855e-4
1.085,   5.044e-4
1.087,   4.986e-4
1.089,   4.937e-4
1.091,   5.099e-4
1.093,   4.970e-4
1.095,   4.989e-4
1.097,   5.097e-4
1.099,   5.031e-4
1.101,   5.014e-4
1.103,   5.164e-4
1.105,   5.106e-4
1.107,   5.043e-4
1.109,   5.120e-4
1.111,   5.131e-4
1.113,   5.086e-4
1.115,   5.257e-4
1.117,   5.237e-4
1.119,   5.248e-4
1.121,   5.268e-4
1.123,   5.241e-4
1.125,   5.254e-4
1.127,   5.311e-4
1.129,   5.275e-4
1.131,   5.454e-4
1.133,   5.300e-4
1.135,   5.340e-4
1.137,   5.416e-4
1.139,   5.422e-4
1.141,   5.447e-4
1.143,   5.499e-4
1.145,   5.417e-4
1.147,   5.491e-4
1.149,   5.565e-4
1.151,   5.479e-4
1.153,   5.524e-4
1.155,   5.665e-4
1.157,   5.566e-4
1.159,   5.576e-4
1.161,   5.844e-4
1.163,   5.644e-4
1.165,   5.612e-4
1.167,   5.857e-4
1.169,   5.679e-4
1.171,   5.706e-4
1.173,   5.941e-4
1.175,   5.792e-4
1.177,   5.738e-4
1.179,   5.982e-4
1.181,   5.935e-4
1.183,   5.810e-4
1.185,   6.088e-4
1.187,   5.915e-4
1.189,   5.983e-4
1.191,   6.236e-4
1.193,   6.129e-4
1.195,   5.959e-4
1.197,   6.237e-4
1.199,   6.172e-4
1.201,   5.985e-4
1.203,   6.318e-4
1.205,   6.332e-4
1.207,   6.098e-4
1.209,   6.401e-4
1.211,   6.337e-4
1.213,   6.255e-4
1.215,   6.578e-4
1.217,   6.358e-4
1.219,   6.343e-4
1.221,   6.685e-4
1.223,   6.527e-4
1.225,   6.433e-4
1.227,   6.788e-4
1.229,   6.610e-4
1.231,   6.576e-4
1.233,   6.907e-4
1.235,   6.772e-4
1.237,   6.672e-4
1.239,   6.955e-4
1.241,   6.815e-4
1.243,   6.858e-4
1.245,   7.120e-4
1.247,   6.903e-4
1.249,   6.973e-4
1.251,   7.244e-4
1.253,   7.050e-4
1.255,   7.153e-4
1.257,   7.378e-4
1.259,   7.118e-4
1.261,   7.342e-4
1.263,   7.502e-4
1.265,   7.322e-4
1.267,   7.467e-4
1.269,   7.600e-4
1.271,   7.419e-4
1.273,   7.561e-4
1.275,   7.815e-4
1.277,   7.564e-4
1.279,   7.722e-4
1.281,   7.915e-4
1.283,   7.689e-4
1.285,   7.938e-4
1.287,   8.094e-4
1.289,   7.908e-4
1.291,   8.025e-4
1.293,   8.150e-4
1.295,   8.128e-4
1.297,   8.412e-4
1.299,   8.388e-4
1.301,   8.172e-4
1.303,   8.462e-4
1.305,   8.551e-4
1.307,   8.454e-4
1.309,   8.842e-4
1.311,   8.712e-4
1.313,   8.558e-4
1.315,   8.978e-4
1.317,   8.905e-4
1.319,   8.808e-4
1.321,   9.264e-4
1.323,   9.141e-4
1.325,   9.034e-4
1.327,   9.505e-4
1.329,   9.376e-4
1.331,   9.272e-4
1.333,   9.776e-4
1.335,   9.670e-4
1.337,   9.516e-4
1.339,   1.004e-3
1.341,   9.808e-4
1.343,   9.841e-4
1.345,   1.044e-3
1.347,   1.011e-3
1.349,   1.011e-3
1.351,   1.100e-3
1.353,   1.039e-3
1.355,   1.064e-3
1.357,   1.113e-3
1.359,   1.080e-3
1.361,   1.099e-3
1.363,   1.151e-3
1.365,   1.141e-3
1.367,   1.146e-3
1.369,   1.210e-3
1.371,   1.194e-3
1.373,   1.201e-3
1.375,   1.267e-3
1.377,   1.247e-3
1.379,   1.292e-3
1.381,   1.352e-3
1.383,   1.334e-3
1.385,   1.384e-3
1.387,   1.432e-3
1.389,   1.427e-3
1.391,   1.497e-3
1.393,   1.549e-3
1.395,   1.561e-3
1.397,   1.633e-3
1.399,   1.708e-3
1.401,   1.721e-3
1.403,   1.828e-3
1.405,   1.908e-3
1.407,   1.926e-3
1.409,   2.069e-3
1.411,   2.157e-3
1.413,   2.194e-3
1.415,   2.392e-3
1.417,   2.470e-3
1.419,   2.576e-3
1.421,   2.809e-3
1.423,   2.940e-3
1.425,   3.098e-3
1.427,   3.373e-3
1.429,   3.540e-3
1.431,   3.743e-3
1.433,   4.176e-3
1.435,   4.430e-3
1.437,   4.723e-3
1.439,   5.280e-3
1.441,   5.550e-3
1.443,   5.937e-3
1.445,   6.699e-3
1.447,   6.940e-3
1.449,   7.390e-3
1.451,   8.221e-3
1.453,   8.477e-3
1.455,   8.899e-3
1.457,   9.557e-3
1.459,   9.811e-3
1.461,   1.007e-2
1.463,   1.007e-2
1.465,   1.007e-2
1.467,   1.007e-2
1.469,   1.007e-2
1.471,   1.007e-2
1.473,   1.007e-2
1.475,   1.007e-2
1.477,   1.007e-2
1.479,   1.007e-2
1.481,   1.007e-2
1.483,   1.007e-2
1.484,   1.007e-2