File: Experimental Records and Raw Data/batch5/final400/B5_BEST_400_#1_High_Quality(#29)-237mV.txt
May 30, 2023   21:24:06
Linear Sweep Voltammetry
File: d:\current work\al_oer\electrochemical test data\batch 5\400\B5_BEST_400_#1_High_Quality(#29)-237mV.txt
Data Source:  Experiment
Instrument Model:  CHI660E
Header:
Note:

Init E (V) = 0.902

Final E (V) = 1.541

Scan Rate (V/s) = 0.010
Sample Interval (V) = 0.001
Quiet Time (sec) = 2
Sensitivity (A/V) = 0.001
Comp R (ohm) = 6.0

Results:

Channel 1:

Potential/V, Current/A
0.902,   2.383e-4
0.905,   2.264e-4
0.908,   2.060e-4
0.911,   1.916e-4
0.914,   1.750e-4
0.917,   1.623e-4
0.920,   1.551e-4
0.923,   1.479e-4
0.926,   1.395e-4
0.929,   1.358e-4
0.932,   1.305e-4
0.935,   1.237e-4
0.938,   1.204e-4
0.941,   1.185e-4
0.944,   1.145e-4
0.947,   1.125e-4
0.950,   1.109e-4
0.953,   1.060e-4
0.956,   1.046e-4
0.959,   1.039e-4
0.962,   1.018e-4
0.965,   1.008e-4
0.968,   1.007e-4
0.971,   9.678e-5
0.974,   9.567e-5
0.977,   9.604e-5
0.980,   9.493e-5
0.983,   9.286e-5
0.986,   9.229e-5
0.989,   9.162e-5
0.992,   8.939e-5
0.995,   8.940e-5
0.998,   8.996e-5
1.001,   8.810e-5
1.004,   8.791e-5
1.007,   8.800e-5
1.010,   8.607e-5
1.013,   8.481e-5
1.016,   8.617e-5
1.019,   8.532e-5
1.022,   8.478e-5
1.025,   8.639e-5
1.028,   8.520e-5
1.031,   8.282e-5
1.034,   8.352e-5
1.037,   8.420e-5
1.040,   8.302e-5
1.043,   8.407e-5
1.046,   8.373e-5
1.049,   8.290e-5
1.052,   8.208e-5
1.055,   8.344e-5
1.058,   8.241e-5
1.061,   8.337e-5
1.064,   8.329e-5
1.067,   8.202e-5
1.070,   8.256e-5
1.073,   8.258e-5
1.076,   8.254e-5
1.079,   8.307e-5
1.082,   8.476e-5
1.085,   8.349e-5
1.088,   8.217e-5
1.091,   8.360e-5
1.094,   8.400e-5
1.097,   8.265e-5
1.100,   8.565e-5
1.103,   8.569e-5
1.106,   8.364e-5
1.109,   8.465e-5
1.112,   8.604e-5
1.115,   8.594e-5
1.118,   8.671e-5
1.121,   8.733e-5
1.124,   8.640e-5
1.127,   8.674e-5
1.130,   8.830e-5
1.133,   8.826e-5
1.136,   8.917e-5
1.139,   8.978e-5
1.142,   9.005e-5
1.145,   8.880e-5
1.148,   9.059e-5
1.151,   9.147e-5
1.154,   9.145e-5
1.157,   9.353e-5
1.160,   9.400e-5
1.163,   9.299e-5
1.166,   9.320e-5
1.169,   9.523e-5
1.172,   9.491e-5
1.175,   9.703e-5
1.178,   9.894e-5
1.181,   9.786e-5
1.184,   9.666e-5
1.187,   9.842e-5
1.190,   9.971e-5
1.193,   1.007e-4
1.196,   1.030e-4
1.199,   1.031e-4
1.202,   1.013e-4
1.205,   1.025e-4
1.208,   1.051e-4
1.211,   1.047e-4
1.214,   1.068e-4
1.217,   1.093e-4
1.220,   1.054e-4
1.223,   1.073e-4
1.226,   1.091e-4
1.229,   1.107e-4
1.232,   1.100e-4
1.235,   1.132e-4
1.238,   1.120e-4
1.241,   1.116e-4
1.244,   1.135e-4
1.247,   1.152e-4
1.250,   1.140e-4
1.253,   1.156e-4
1.256,   1.172e-4
1.259,   1.149e-4
1.262,   1.149e-4
1.265,   1.168e-4
1.268,   1.161e-4
1.271,   1.173e-4
1.274,   1.199e-4
1.277,   1.177e-4
1.280,   1.172e-4
1.283,   1.185e-4
1.286,   1.197e-4
1.289,   1.186e-4
1.292,   1.213e-4
1.295,   1.211e-4
1.298,   1.178e-4
1.301,   1.211e-4
1.304,   1.220e-4
1.307,   1.215e-4
1.310,   1.228e-4
1.313,   1.239e-4
1.316,   1.220e-4
1.319,   1.226e-4
1.322,   1.245e-4
1.325,   1.228e-4
1.328,   1.240e-4
1.331,   1.282e-4
1.334,   1.265e-4
1.337,   1.265e-4
1.340,   1.290e-4
1.343,   1.277e-4
1.346,   1.285e-4
1.349,   1.310e-4
1.352,   1.331e-4
1.355,   1.308e-4
1.358,   1.353e-4
1.361,   1.358e-4
1.364,   1.339e-4
1.367,   1.380e-4
1.370,   1.423e-4
1.373,   1.415e-4
1.376,   1.420e-4
1.379,   1.462e-4
1.382,   1.461e-4
1.385,   1.492e-4
1.388,   1.565e-4
1.391,   1.588e-4
1.394,   1.591e-4
1.397,   1.652e-4
1.400,   1.705e-4
1.403,   1.742e-4
1.406,   1.848e-4
1.409,   1.977e-4
1.412,   2.030e-4
1.415,   2.169e-4
1.418,   2.336e-4
1.421,   2.509e-4
1.424,   2.760e-4
1.427,   3.128e-4
1.430,   3.463e-4
1.433,   3.861e-4
1.436,   4.443e-4
1.439,   5.024e-4
1.442,   5.692e-4
1.445,   6.712e-4
1.448,   7.753e-4
1.451,   8.778e-4
1.454,   1.023e-3
1.457,   1.187e-3
1.460,   1.350e-3
1.463,   1.585e-3
1.466,   1.846e-3
1.469,   2.079e-3
1.472,   2.353e-3
1.475,   2.702e-3
1.478,   3.041e-3
1.481,   3.421e-3
1.484,   3.958e-3
1.487,   4.414e-3
1.490,   4.807e-3
1.493,   5.315e-3
1.496,   5.957e-3
1.499,   6.613e-3
1.502,   7.391e-3
1.505,   8.111e-3
1.508,   8.510e-3
1.511,   8.785e-3
1.514,   8.993e-3
1.517,   9.145e-3
1.520,   9.460e-3
1.523,   9.657e-3
1.526,   9.755e-3
1.529,   9.921e-3
1.532,   1.004e-2
1.535,   1.007e-2
1.538,   1.007e-2
1.541,   1.007e-2