File: Experimental Records, Raw Data, and Supplementary Notes and Figures/batch3/final400/B3_BEST_400_#1_High_Quality(#14)-225mV.txt
Feb. 21, 2023   16:23:14
Linear Sweep Voltammetry
File: d:\current work\al_oer\electrochemical test data\batch 3\400\B3_BEST_400_#1_High_Quality(#14)-225mV.txt
Data Source:  Experiment
Instrument Model:  CHI660E
Header:
Note:

Init E (V) = 1.098

Final E (V) = 1.501

Scan Rate (V/s) = 0.010
Sample Interval (V) = 0.001
Quiet Time (sec) = 2
Sensitivity (A/V) = 0.001
Comp R (ohm) = 6.0

Results:

Channel 1:

Potential/V, Current/A
1.098,   9.601e-5
1.100,   9.198e-5
1.102,   8.254e-5
1.104,   7.500e-5
1.106,   6.917e-5
1.108,   6.444e-5
1.110,   6.057e-5
1.112,   5.734e-5
1.114,   5.464e-5
1.116,   5.244e-5
1.118,   5.052e-5
1.120,   4.866e-5
1.122,   4.714e-5
1.124,   4.591e-5
1.126,   4.472e-5
1.128,   4.366e-5
1.130,   4.273e-5
1.132,   4.204e-5
1.134,   4.124e-5
1.136,   4.049e-5
1.138,   3.987e-5
1.140,   3.934e-5
1.142,   3.887e-5
1.144,   3.838e-5
1.146,   3.787e-5
1.148,   3.760e-5
1.150,   3.737e-5
1.152,   3.699e-5
1.154,   3.667e-5
1.156,   3.643e-5
1.158,   3.618e-5
1.160,   3.588e-5
1.162,   3.560e-5
1.164,   3.556e-5
1.166,   3.533e-5
1.168,   3.509e-5
1.170,   3.500e-5
1.172,   3.488e-5
1.174,   3.473e-5
1.176,   3.449e-5
1.178,   3.438e-5
1.180,   3.434e-5
1.182,   3.426e-5
1.184,   3.411e-5
1.186,   3.399e-5
1.188,   3.397e-5
1.190,   3.392e-5
1.192,   3.379e-5
1.194,   3.367e-5
1.196,   3.375e-5
1.198,   3.367e-5
1.200,   3.353e-5
1.202,   3.356e-5
1.204,   3.352e-5
1.206,   3.352e-5
1.208,   3.346e-5
1.210,   3.337e-5
1.212,   3.349e-5
1.214,   3.348e-5
1.216,   3.329e-5
1.218,   3.336e-5
1.220,   3.342e-5
1.222,   3.339e-5
1.224,   3.337e-5
1.226,   3.337e-5
1.228,   3.348e-5
1.230,   3.345e-5
1.232,   3.333e-5
1.234,   3.341e-5
1.236,   3.351e-5
1.238,   3.351e-5
1.240,   3.346e-5
1.242,   3.344e-5
1.244,   3.362e-5
1.246,   3.362e-5
1.248,   3.356e-5
1.250,   3.359e-5
1.252,   3.370e-5
1.254,   3.370e-5
1.256,   3.371e-5
1.258,   3.372e-5
1.260,   3.391e-5
1.262,   3.394e-5
1.264,   3.385e-5
1.266,   3.395e-5
1.268,   3.406e-5
1.270,   3.413e-5
1.272,   3.415e-5
1.274,   3.415e-5
1.276,   3.428e-5
1.278,   3.434e-5
1.280,   3.432e-5
1.282,   3.442e-5
1.284,   3.453e-5
1.286,   3.459e-5
1.288,   3.455e-5
1.290,   3.453e-5
1.292,   3.473e-5
1.294,   3.476e-5
1.296,   3.471e-5
1.298,   3.480e-5
1.300,   3.484e-5
1.302,   3.490e-5
1.304,   3.497e-5
1.306,   3.498e-5
1.308,   3.524e-5
1.310,   3.527e-5
1.312,   3.528e-5
1.314,   3.536e-5
1.316,   3.549e-5
1.318,   3.555e-5
1.320,   3.564e-5
1.322,   3.571e-5
1.324,   3.610e-5
1.326,   3.602e-5
1.328,   3.610e-5
1.330,   3.629e-5
1.332,   3.650e-5
1.334,   3.659e-5
1.336,   3.682e-5
1.338,   3.691e-5
1.340,   3.721e-5
1.342,   3.732e-5
1.344,   3.741e-5
1.346,   3.766e-5
1.348,   3.793e-5
1.350,   3.819e-5
1.352,   3.835e-5
1.354,   3.870e-5
1.356,   3.916e-5
1.358,   3.944e-5
1.360,   3.985e-5
1.362,   4.037e-5
1.364,   4.093e-5
1.366,   4.149e-5
1.368,   4.207e-5
1.370,   4.281e-5
1.372,   4.385e-5
1.374,   4.486e-5
1.376,   4.596e-5
1.378,   4.728e-5
1.380,   4.905e-5
1.382,   5.091e-5
1.384,   5.300e-5
1.386,   5.552e-5
1.388,   5.871e-5
1.390,   6.223e-5
1.392,   6.627e-5
1.394,   7.136e-5
1.396,   7.711e-5
1.398,   8.378e-5
1.400,   9.161e-5
1.402,   1.006e-4
1.404,   1.111e-4
1.406,   1.233e-4
1.408,   1.372e-4
1.410,   1.533e-4
1.412,   1.720e-4
1.414,   1.931e-4
1.416,   2.169e-4
1.418,   2.443e-4
1.420,   2.754e-4
1.422,   3.101e-4
1.424,   3.492e-4
1.426,   3.929e-4
1.428,   4.418e-4
1.430,   4.961e-4
1.432,   5.561e-4
1.434,   6.224e-4
1.436,   6.959e-4
1.438,   7.767e-4
1.440,   8.654e-4
1.442,   9.629e-4
1.444,   1.070e-3
1.446,   1.188e-3
1.448,   1.316e-3
1.450,   1.457e-3
1.452,   1.612e-3
1.454,   1.781e-3
1.456,   1.964e-3
1.458,   2.165e-3
1.460,   2.382e-3
1.462,   2.621e-3
1.464,   2.880e-3
1.466,   3.160e-3
1.468,   3.457e-3
1.470,   3.780e-3
1.472,   4.124e-3
1.474,   4.500e-3
1.476,   4.908e-3
1.478,   5.337e-3
1.480,   5.784e-3
1.482,   6.301e-3
1.484,   6.834e-3
1.486,   7.379e-3
1.488,   7.952e-3
1.490,   8.553e-3
1.492,   9.155e-3
1.494,   9.789e-3
1.496,   1.006e-2
1.498,   1.006e-2
1.500,   1.006e-2
1.501,   1.006e-2