File: Experimental Records, Raw Data, and Supplementary Notes and Figures/batch3/final400/B3_BEST_400_#3_High_Quality(#16)-219mV.txt
Feb. 21, 2023   16:29:36
Linear Sweep Voltammetry
File: d:\current work\al_oer\electrochemical test data\batch 3\400\B3_BEST_400_#3_High_Quality(#16)-219mV.txt
Data Source:  Experiment
Instrument Model:  CHI660E
Header:
Note:

Init E (V) = 1.099

Final E (V) = 1.517

Scan Rate (V/s) = 0.010
Sample Interval (V) = 0.001
Quiet Time (sec) = 2
Sensitivity (A/V) = 0.001
Comp R (ohm) = 5.6

Results:

Channel 1:

Potential/V, Current/A
1.099,   4.668e-4
1.101,   3.945e-4
1.103,   3.330e-4
1.105,   2.871e-4
1.107,   2.547e-4
1.109,   2.302e-4
1.111,   2.112e-4
1.113,   1.965e-4
1.115,   1.846e-4
1.117,   1.755e-4
1.119,   1.678e-4
1.121,   1.615e-4
1.123,   1.560e-4
1.125,   1.515e-4
1.127,   1.478e-4
1.129,   1.443e-4
1.131,   1.418e-4
1.133,   1.394e-4
1.135,   1.375e-4
1.137,   1.357e-4
1.139,   1.369e-4
1.141,   1.339e-4
1.143,   1.315e-4
1.145,   1.304e-4
1.147,   1.291e-4
1.149,   1.284e-4
1.151,   1.278e-4
1.153,   1.270e-4
1.155,   1.263e-4
1.157,   1.259e-4
1.159,   1.258e-4
1.161,   1.252e-4
1.163,   1.247e-4
1.165,   1.247e-4
1.167,   1.245e-4
1.169,   1.242e-4
1.171,   1.241e-4
1.173,   1.240e-4
1.175,   1.238e-4
1.177,   1.236e-4
1.179,   1.235e-4
1.181,   1.234e-4
1.183,   1.235e-4
1.185,   1.233e-4
1.187,   1.232e-4
1.189,   1.232e-4
1.191,   1.235e-4
1.193,   1.234e-4
1.195,   1.230e-4
1.197,   1.236e-4
1.199,   1.235e-4
1.201,   1.233e-4
1.203,   1.234e-4
1.205,   1.236e-4
1.207,   1.236e-4
1.209,   1.238e-4
1.211,   1.237e-4
1.213,   1.239e-4
1.215,   1.240e-4
1.217,   1.240e-4
1.219,   1.241e-4
1.221,   1.243e-4
1.223,   1.245e-4
1.225,   1.246e-4
1.227,   1.245e-4
1.229,   1.251e-4
1.231,   1.250e-4
1.233,   1.249e-4
1.235,   1.253e-4
1.237,   1.253e-4
1.239,   1.256e-4
1.241,   1.257e-4
1.243,   1.255e-4
1.245,   1.259e-4
1.247,   1.261e-4
1.249,   1.263e-4
1.251,   1.262e-4
1.253,   1.262e-4
1.255,   1.267e-4
1.257,   1.265e-4
1.259,   1.264e-4
1.261,   1.270e-4
1.263,   1.271e-4
1.265,   1.271e-4
1.267,   1.272e-4
1.269,   1.272e-4
1.271,   1.274e-4
1.273,   1.275e-4
1.275,   1.275e-4
1.277,   1.278e-4
1.279,   1.279e-4
1.281,   1.278e-4
1.283,   1.280e-4
1.285,   1.283e-4
1.287,   1.286e-4
1.289,   1.284e-4
1.291,   1.284e-4
1.293,   1.288e-4
1.295,   1.288e-4
1.297,   1.289e-4
1.299,   1.291e-4
1.301,   1.293e-4
1.303,   1.294e-4
1.305,   1.296e-4
1.307,   1.295e-4
1.309,   1.298e-4
1.311,   1.301e-4
1.313,   1.302e-4
1.315,   1.303e-4
1.317,   1.306e-4
1.319,   1.310e-4
1.321,   1.312e-4
1.323,   1.312e-4
1.325,   1.324e-4
1.327,   1.322e-4
1.329,   1.324e-4
1.331,   1.329e-4
1.333,   1.332e-4
1.335,   1.336e-4
1.337,   1.339e-4
1.339,   1.342e-4
1.341,   1.348e-4
1.343,   1.353e-4
1.345,   1.358e-4
1.347,   1.361e-4
1.349,   1.371e-4
1.351,   1.381e-4
1.353,   1.384e-4
1.355,   1.390e-4
1.357,   1.401e-4
1.359,   1.411e-4
1.361,   1.421e-4
1.363,   1.435e-4
1.365,   1.450e-4
1.367,   1.465e-4
1.369,   1.484e-4
1.371,   1.500e-4
1.373,   1.525e-4
1.375,   1.551e-4
1.377,   1.577e-4
1.379,   1.614e-4
1.381,   1.652e-4
1.383,   1.695e-4
1.385,   1.738e-4
1.387,   1.791e-4
1.389,   1.859e-4
1.391,   1.931e-4
1.393,   2.013e-4
1.395,   2.109e-4
1.397,   2.220e-4
1.399,   2.350e-4
1.401,   2.496e-4
1.403,   2.658e-4
1.405,   2.849e-4
1.407,   3.061e-4
1.409,   3.303e-4
1.411,   3.573e-4
1.413,   3.880e-4
1.415,   4.221e-4
1.417,   4.605e-4
1.419,   5.027e-4
1.421,   5.503e-4
1.423,   6.021e-4
1.425,   6.592e-4
1.427,   7.222e-4
1.429,   7.916e-4
1.431,   8.668e-4
1.433,   9.486e-4
1.435,   1.037e-3
1.437,   1.132e-3
1.439,   1.235e-3
1.441,   1.345e-3
1.443,   1.464e-3
1.445,   1.588e-3
1.447,   1.722e-3
1.449,   1.864e-3
1.451,   2.015e-3
1.453,   2.176e-3
1.455,   2.345e-3
1.457,   2.520e-3
1.459,   2.707e-3
1.461,   2.898e-3
1.463,   3.103e-3
1.465,   3.314e-3
1.467,   3.524e-3
1.469,   3.751e-3
1.471,   3.976e-3
1.473,   4.215e-3
1.475,   4.401e-3
1.477,   4.633e-3
1.479,   4.879e-3
1.481,   5.123e-3
1.483,   5.376e-3
1.485,   5.623e-3
1.487,   5.870e-3
1.489,   6.123e-3
1.491,   6.890e-3
1.493,   7.546e-3
1.495,   7.796e-3
1.497,   8.047e-3
1.499,   8.320e-3
1.501,   8.559e-3
1.503,   8.811e-3
1.505,   9.035e-3
1.507,   9.275e-3
1.509,   9.479e-3
1.511,   9.686e-3
1.513,   9.872e-3
1.515,   1.006e-2
1.517,   1.006e-2