File: Experimental Records, Raw Data, and Supplementary Notes and Figures/batch3/final400/B3_BEST_400_#7_Full-209mV.txt
Feb. 21, 2023   15:26:22
Linear Sweep Voltammetry
File: d:\current work\al_oer\electrochemical test data\batch 3\400\B3_BEST_400_#7_Full-209mV.txt
Data Source:  Experiment
Instrument Model:  CHI660E
Header:
Note:

Init E (V) = 1.098

Final E (V) = 1.601

Scan Rate (V/s) = 0.010
Sample Interval (V) = 0.001
Quiet Time (sec) = 2
Sensitivity (A/V) = 0.001
Comp R (ohm) = 5.0

Results:

Channel 1:
Ep = 1.280V
ip = 9.946e-3A
Ah = 4.536e-2C

Potential/V, Current/A
1.098,   1.959e-4
1.100,   2.053e-4
1.102,   1.852e-4
1.104,   1.699e-4
1.106,   1.590e-4
1.108,   1.499e-4
1.110,   1.429e-4
1.112,   1.371e-4
1.114,   1.323e-4
1.116,   1.288e-4
1.118,   1.257e-4
1.120,   1.226e-4
1.122,   1.202e-4
1.124,   1.184e-4
1.126,   1.166e-4
1.128,   1.149e-4
1.130,   1.134e-4
1.132,   1.127e-4
1.134,   1.117e-4
1.136,   1.106e-4
1.138,   1.100e-4
1.140,   1.094e-4
1.142,   1.089e-4
1.144,   1.085e-4
1.146,   1.077e-4
1.148,   1.079e-4
1.150,   1.074e-4
1.152,   1.070e-4
1.154,   1.066e-4
1.156,   1.068e-4
1.158,   1.068e-4
1.160,   1.065e-4
1.162,   1.062e-4
1.164,   1.067e-4
1.166,   1.066e-4
1.168,   1.064e-4
1.170,   1.067e-4
1.172,   1.069e-4
1.174,   1.069e-4
1.176,   1.069e-4
1.178,   1.067e-4
1.180,   1.072e-4
1.182,   1.074e-4
1.184,   1.071e-4
1.186,   1.073e-4
1.188,   1.079e-4
1.190,   1.079e-4
1.192,   1.077e-4
1.194,   1.079e-4
1.196,   1.087e-4
1.198,   1.087e-4
1.200,   1.082e-4
1.202,   1.086e-4
1.204,   1.089e-4
1.206,   1.089e-4
1.208,   1.092e-4
1.210,   1.089e-4
1.212,   1.094e-4
1.214,   1.098e-4
1.216,   1.094e-4
1.218,   1.094e-4
1.220,   1.099e-4
1.222,   1.100e-4
1.224,   1.099e-4
1.226,   1.096e-4
1.228,   1.104e-4
1.230,   1.102e-4
1.232,   1.097e-4
1.234,   1.104e-4
1.236,   1.104e-4
1.238,   1.102e-4
1.240,   1.102e-4
1.242,   1.101e-4
1.244,   1.107e-4
1.246,   1.107e-4
1.248,   1.103e-4
1.250,   1.105e-4
1.252,   1.105e-4
1.254,   1.106e-4
1.256,   1.104e-4
1.258,   1.102e-4
1.260,   1.110e-4
1.262,   1.108e-4
1.264,   1.104e-4
1.266,   1.106e-4
1.268,   1.109e-4
1.270,   1.110e-4
1.272,   1.111e-4
1.274,   1.106e-4
1.276,   1.110e-4
1.278,   1.110e-4
1.280,   1.108e-4
1.282,   1.108e-4
1.284,   1.112e-4
1.286,   1.114e-4
1.288,   1.112e-4
1.290,   1.113e-4
1.292,   1.119e-4
1.294,   1.118e-4
1.296,   1.116e-4
1.298,   1.120e-4
1.300,   1.122e-4
1.302,   1.125e-4
1.304,   1.125e-4
1.306,   1.126e-4
1.308,   1.132e-4
1.310,   1.135e-4
1.312,   1.133e-4
1.314,   1.134e-4
1.316,   1.142e-4
1.318,   1.145e-4
1.320,   1.144e-4
1.322,   1.147e-4
1.324,   1.162e-4
1.326,   1.159e-4
1.328,   1.158e-4
1.330,   1.164e-4
1.332,   1.171e-4
1.334,   1.177e-4
1.336,   1.180e-4
1.338,   1.180e-4
1.340,   1.193e-4
1.342,   1.198e-4
1.344,   1.199e-4
1.346,   1.208e-4
1.348,   1.218e-4
1.350,   1.226e-4
1.352,   1.233e-4
1.354,   1.244e-4
1.356,   1.258e-4
1.358,   1.274e-4
1.360,   1.281e-4
1.362,   1.304e-4
1.364,   1.321e-4
1.366,   1.344e-4
1.368,   1.367e-4
1.370,   1.391e-4
1.372,   1.429e-4
1.374,   1.467e-4
1.376,   1.505e-4
1.378,   1.553e-4
1.380,   1.611e-4
1.382,   1.675e-4
1.384,   1.746e-4
1.386,   1.826e-4
1.388,   1.929e-4
1.390,   2.035e-4
1.392,   2.158e-4
1.394,   2.301e-4
1.396,   2.469e-4
1.398,   2.652e-4
1.400,   2.867e-4
1.402,   3.105e-4
1.404,   3.386e-4
1.406,   3.691e-4
1.408,   4.039e-4
1.410,   4.432e-4
1.412,   4.879e-4
1.414,   5.386e-4
1.416,   5.927e-4
1.418,   6.547e-4
1.420,   7.322e-4
1.422,   8.070e-4
1.424,   8.912e-4
1.426,   9.874e-4
1.428,   1.095e-3
1.430,   1.211e-3
1.432,   1.342e-3
1.434,   1.482e-3
1.436,   1.641e-3
1.438,   1.813e-3
1.440,   2.002e-3
1.442,   2.203e-3
1.444,   2.435e-3
1.446,   2.674e-3
1.448,   2.936e-3
1.450,   3.223e-3
1.452,   3.531e-3
1.454,   3.892e-3
1.456,   4.236e-3
1.458,   4.629e-3
1.460,   5.030e-3
1.462,   5.461e-3
1.464,   6.119e-3
1.466,   6.675e-3
1.468,   7.175e-3
1.470,   7.908e-3
1.472,   8.520e-3
1.474,   9.097e-3
1.476,   9.758e-3
1.478,   1.006e-2
1.480,   1.006e-2
1.482,   1.006e-2
1.484,   1.006e-2
1.486,   1.006e-2
1.488,   1.006e-2
1.490,   1.006e-2
1.492,   1.006e-2
1.494,   1.006e-2
1.496,   1.006e-2
1.498,   1.006e-2
1.500,   1.006e-2
1.502,   1.006e-2
1.504,   1.006e-2
1.506,   1.006e-2
1.508,   1.006e-2
1.510,   1.006e-2
1.512,   1.006e-2
1.514,   1.006e-2
1.516,   1.006e-2
1.518,   1.006e-2
1.520,   1.006e-2
1.522,   1.006e-2
1.524,   1.006e-2
1.526,   1.006e-2
1.528,   1.006e-2
1.530,   1.006e-2
1.532,   1.006e-2
1.534,   1.006e-2
1.536,   1.006e-2
1.538,   1.006e-2
1.540,   1.006e-2
1.542,   1.006e-2
1.544,   1.006e-2
1.546,   1.006e-2
1.548,   1.006e-2
1.550,   1.006e-2
1.552,   1.006e-2
1.554,   1.006e-2
1.556,   1.006e-2
1.558,   1.006e-2
1.560,   1.006e-2
1.562,   1.006e-2
1.564,   1.006e-2
1.566,   1.006e-2
1.568,   1.006e-2
1.570,   1.006e-2
1.572,   1.006e-2
1.574,   1.006e-2
1.576,   1.006e-2
1.578,   1.006e-2
1.580,   1.006e-2
1.582,   1.006e-2
1.584,   1.006e-2
1.586,   1.006e-2
1.588,   1.006e-2
1.590,   1.006e-2
1.592,   1.006e-2
1.594,   1.006e-2
1.596,   1.006e-2
1.598,   1.006e-2
1.600,   1.006e-2
1.601,   1.006e-2