File: Experimental Records, Raw Data, and Supplementary Notes and Figures/batch3/final400/B3_BEST_400_#1_Full-200mV.txt
Feb. 21, 2023   14:03:57
Linear Sweep Voltammetry
File: d:\current work\al_oer\electrochemical test data\batch 3\400\B3_BEST_400_#1_Full-200mV.txt
Data Source:  Experiment
Instrument Model:  CHI660E
Header:
Note:

Init E (V) = 1.099

Final E (V) = 1.466

Scan Rate (V/s) = 0.010
Sample Interval (V) = 0.001
Quiet Time (sec) = 2
Sensitivity (A/V) = 0.001
Comp R (ohm) = 7.5

Results:

Channel 1:

Potential/V, Current/A
1.099,   4.149e-4
1.101,   3.683e-4
1.103,   3.191e-4
1.105,   2.772e-4
1.107,   2.698e-4
1.109,   2.332e-4
1.111,   2.168e-4
1.113,   2.189e-4
1.115,   1.873e-4
1.117,   1.906e-4
1.119,   1.808e-4
1.121,   1.745e-4
1.123,   1.581e-4
1.125,   1.669e-4
1.127,   1.605e-4
1.129,   1.516e-4
1.131,   1.386e-4
1.133,   1.439e-4
1.135,   1.464e-4
1.137,   1.477e-4
1.139,   1.473e-4
1.141,   1.342e-4
1.143,   1.332e-4
1.145,   1.334e-4
1.147,   1.220e-4
1.149,   1.180e-4
1.151,   1.249e-4
1.153,   1.277e-4
1.155,   1.238e-4
1.157,   1.253e-4
1.159,   1.298e-4
1.161,   1.300e-4
1.163,   1.279e-4
1.165,   1.185e-4
1.167,   1.139e-4
1.169,   1.215e-4
1.171,   1.292e-4
1.173,   1.183e-4
1.175,   1.112e-4
1.177,   1.228e-4
1.179,   1.216e-4
1.181,   1.127e-4
1.183,   1.272e-4
1.185,   1.134e-4
1.187,   1.198e-4
1.189,   1.105e-4
1.191,   1.247e-4
1.193,   1.110e-4
1.195,   1.273e-4
1.197,   1.035e-4
1.199,   1.282e-4
1.201,   1.112e-4
1.203,   1.295e-4
1.205,   1.204e-4
1.207,   1.072e-4
1.209,   1.272e-4
1.211,   1.133e-4
1.213,   1.083e-4
1.215,   1.246e-4
1.217,   1.263e-4
1.219,   1.090e-4
1.221,   1.030e-4
1.223,   1.186e-4
1.225,   1.312e-4
1.227,   1.309e-4
1.229,   1.205e-4
1.231,   1.092e-4
1.233,   1.059e-4
1.235,   9.990e-5
1.237,   1.018e-4
1.239,   1.003e-4
1.241,   9.872e-5
1.243,   1.024e-4
1.245,   1.033e-4
1.247,   1.048e-4
1.249,   1.135e-4
1.251,   1.268e-4
1.253,   1.337e-4
1.255,   1.325e-4
1.257,   1.181e-4
1.259,   1.039e-4
1.261,   1.075e-4
1.263,   1.296e-4
1.265,   1.339e-4
1.267,   1.116e-4
1.269,   1.074e-4
1.271,   1.335e-4
1.273,   1.231e-4
1.275,   1.046e-4
1.277,   1.332e-4
1.279,   1.184e-4
1.281,   1.119e-4
1.283,   1.349e-4
1.285,   1.066e-4
1.287,   1.349e-4
1.289,   1.104e-4
1.291,   1.343e-4
1.293,   1.114e-4
1.295,   1.342e-4
1.297,   1.104e-4
1.299,   1.331e-4
1.301,   1.174e-4
1.303,   1.228e-4
1.305,   1.327e-4
1.307,   1.154e-4
1.309,   1.242e-4
1.311,   1.356e-4
1.313,   1.234e-4
1.315,   1.176e-4
1.317,   1.297e-4
1.319,   1.334e-4
1.321,   1.332e-4
1.323,   1.253e-4
1.325,   1.282e-4
1.327,   1.270e-4
1.329,   1.289e-4
1.331,   1.320e-4
1.333,   1.310e-4
1.335,   1.346e-4
1.337,   1.379e-4
1.339,   1.365e-4
1.341,   1.340e-4
1.343,   1.306e-4
1.345,   1.301e-4
1.347,   1.408e-4
1.349,   1.522e-4
1.351,   1.383e-4
1.353,   1.331e-4
1.355,   1.573e-4
1.357,   1.396e-4
1.359,   1.460e-4
1.361,   1.562e-4
1.363,   1.402e-4
1.365,   1.599e-4
1.367,   1.596e-4
1.369,   1.457e-4
1.371,   1.917e-4
1.373,   1.586e-4
1.375,   1.524e-4
1.377,   1.954e-4
1.379,   2.190e-4
1.381,   2.062e-4
1.383,   1.947e-4
1.385,   1.893e-4
1.387,   1.970e-4
1.389,   2.146e-4
1.391,   2.328e-4
1.393,   2.735e-4
1.395,   3.231e-4
1.397,   3.644e-4
1.399,   3.632e-4
1.401,   3.583e-4
1.403,   4.381e-4
1.405,   5.070e-4
1.407,   4.967e-4
1.409,   6.006e-4
1.411,   6.551e-4
1.413,   7.096e-4
1.415,   8.384e-4
1.417,   8.792e-4
1.419,   1.038e-3
1.421,   1.101e-3
1.423,   1.287e-3
1.425,   1.376e-3
1.427,   1.591e-3
1.429,   1.711e-3
1.431,   1.960e-3
1.433,   2.132e-3
1.435,   2.385e-3
1.437,   2.640e-3
1.439,   2.907e-3
1.441,   3.234e-3
1.443,   3.588e-3
1.445,   4.000e-3
1.447,   4.563e-3
1.449,   5.123e-3
1.451,   5.737e-3
1.453,   6.319e-3
1.455,   6.889e-3
1.457,   7.544e-3
1.459,   8.153e-3
1.461,   8.669e-3
1.463,   9.417e-3
1.465,   1.006e-2
1.466,   1.006e-2