File: Experimental Records, Raw Data, and Supplementary Notes and Figures/batch3/final400/B3_BEST_400_#2_Full-208mV.txt
Feb. 21, 2023   14:40:08
Linear Sweep Voltammetry
File: d:\current work\al_oer\electrochemical test data\batch 3\400\B3_BEST_400_#2_Full-208mV.txt
Data Source:  Experiment
Instrument Model:  CHI660E
Header:
Note:

Init E (V) = 1.100

Final E (V) = 1.581

Scan Rate (V/s) = 0.010
Sample Interval (V) = 0.001
Quiet Time (sec) = 2
Sensitivity (A/V) = 0.001
Comp R (ohm) = 5.6

Results:

Channel 1:
Ep = 1.278V
ip = 9.989e-3A
Ah = 4.718e-2C

Potential/V, Current/A
1.100,   2.524e-4
1.102,   2.262e-4
1.104,   1.957e-4
1.106,   1.726e-4
1.108,   1.550e-4
1.110,   1.410e-4
1.112,   1.296e-4
1.114,   1.204e-4
1.116,   1.127e-4
1.118,   1.067e-4
1.120,   1.014e-4
1.122,   9.671e-5
1.124,   9.286e-5
1.126,   8.966e-5
1.128,   8.673e-5
1.130,   8.410e-5
1.132,   8.182e-5
1.134,   8.011e-5
1.136,   7.823e-5
1.138,   7.647e-5
1.140,   7.522e-5
1.142,   7.406e-5
1.144,   7.284e-5
1.146,   7.187e-5
1.148,   7.087e-5
1.150,   7.018e-5
1.152,   6.932e-5
1.154,   6.853e-5
1.156,   6.798e-5
1.158,   6.749e-5
1.160,   6.703e-5
1.162,   6.643e-5
1.164,   6.593e-5
1.166,   6.573e-5
1.168,   6.535e-5
1.170,   6.482e-5
1.172,   6.466e-5
1.174,   6.442e-5
1.176,   6.420e-5
1.178,   6.382e-5
1.180,   6.355e-5
1.182,   6.356e-5
1.184,   6.334e-5
1.186,   6.301e-5
1.188,   6.293e-5
1.190,   6.293e-5
1.192,   6.277e-5
1.194,   6.253e-5
1.196,   6.246e-5
1.198,   6.255e-5
1.200,   6.243e-5
1.202,   6.222e-5
1.204,   6.219e-5
1.206,   6.228e-5
1.208,   6.218e-5
1.210,   6.220e-5
1.212,   6.197e-5
1.214,   6.220e-5
1.216,   6.216e-5
1.218,   6.197e-5
1.220,   6.201e-5
1.222,   6.216e-5
1.224,   6.208e-5
1.226,   6.207e-5
1.228,   6.213e-5
1.230,   6.232e-5
1.232,   6.221e-5
1.234,   6.216e-5
1.236,   6.243e-5
1.238,   6.247e-5
1.240,   6.247e-5
1.242,   6.244e-5
1.244,   6.233e-5
1.246,   6.271e-5
1.248,   6.283e-5
1.250,   6.263e-5
1.252,   6.271e-5
1.254,   6.293e-5
1.256,   6.309e-5
1.258,   6.303e-5
1.260,   6.308e-5
1.262,   6.346e-5
1.264,   6.343e-5
1.266,   6.348e-5
1.268,   6.364e-5
1.270,   6.385e-5
1.272,   6.392e-5
1.274,   6.410e-5
1.276,   6.409e-5
1.278,   6.440e-5
1.280,   6.455e-5
1.282,   6.451e-5
1.284,   6.467e-5
1.286,   6.511e-5
1.288,   6.511e-5
1.290,   6.520e-5
1.292,   6.533e-5
1.294,   6.578e-5
1.296,   6.587e-5
1.298,   6.597e-5
1.300,   6.631e-5
1.302,   6.654e-5
1.304,   6.678e-5
1.306,   6.690e-5
1.308,   6.707e-5
1.310,   6.755e-5
1.312,   6.782e-5
1.314,   6.785e-5
1.316,   6.820e-5
1.318,   6.870e-5
1.320,   6.892e-5
1.322,   6.923e-5
1.324,   6.941e-5
1.326,   7.025e-5
1.328,   7.042e-5
1.330,   7.059e-5
1.332,   7.107e-5
1.334,   7.166e-5
1.336,   7.209e-5
1.338,   7.268e-5
1.340,   7.298e-5
1.342,   7.378e-5
1.344,   7.438e-5
1.346,   7.498e-5
1.348,   7.579e-5
1.350,   7.670e-5
1.352,   7.760e-5
1.354,   7.839e-5
1.356,   7.931e-5
1.358,   8.087e-5
1.360,   8.207e-5
1.362,   8.333e-5
1.364,   8.525e-5
1.366,   8.722e-5
1.368,   8.922e-5
1.370,   9.174e-5
1.372,   9.430e-5
1.374,   9.778e-5
1.376,   1.014e-4
1.378,   1.055e-4
1.380,   1.102e-4
1.382,   1.162e-4
1.384,   1.224e-4
1.386,   1.297e-4
1.388,   1.383e-4
1.390,   1.485e-4
1.392,   1.598e-4
1.394,   1.726e-4
1.396,   1.879e-4
1.398,   2.050e-4
1.400,   2.247e-4
1.402,   2.476e-4
1.404,   2.737e-4
1.406,   3.035e-4
1.408,   3.376e-4
1.410,   3.760e-4
1.412,   4.200e-4
1.414,   4.700e-4
1.416,   5.266e-4
1.418,   5.902e-4
1.420,   6.614e-4
1.422,   7.409e-4
1.424,   8.308e-4
1.426,   9.312e-4
1.428,   1.043e-3
1.430,   1.168e-3
1.432,   1.306e-3
1.434,   1.459e-3
1.436,   1.626e-3
1.438,   1.812e-3
1.440,   2.018e-3
1.442,   2.246e-3
1.444,   2.488e-3
1.446,   2.751e-3
1.448,   3.042e-3
1.450,   3.371e-3
1.452,   3.713e-3
1.454,   4.084e-3
1.456,   4.507e-3
1.458,   4.926e-3
1.460,   5.374e-3
1.462,   5.929e-3
1.464,   6.410e-3
1.466,   6.937e-3
1.468,   7.501e-3
1.470,   8.121e-3
1.472,   8.839e-3
1.474,   9.340e-3
1.476,   9.989e-3
1.478,   1.006e-2
1.480,   1.006e-2
1.482,   1.006e-2
1.484,   1.006e-2
1.486,   1.006e-2
1.488,   1.006e-2
1.490,   1.006e-2
1.492,   1.006e-2
1.494,   1.006e-2
1.496,   1.006e-2
1.498,   1.006e-2
1.500,   1.006e-2
1.502,   1.006e-2
1.504,   1.006e-2
1.506,   1.006e-2
1.508,   1.006e-2
1.510,   1.006e-2
1.512,   1.006e-2
1.514,   1.006e-2
1.516,   1.006e-2
1.518,   1.006e-2
1.520,   1.006e-2
1.522,   1.006e-2
1.524,   1.006e-2
1.526,   1.006e-2
1.528,   1.006e-2
1.530,   1.006e-2
1.532,   1.006e-2
1.534,   1.006e-2
1.536,   1.006e-2
1.538,   1.006e-2
1.540,   1.006e-2
1.542,   1.006e-2
1.544,   1.006e-2
1.546,   1.006e-2
1.548,   1.006e-2
1.550,   1.006e-2
1.552,   1.006e-2
1.554,   1.006e-2
1.556,   1.006e-2
1.558,   1.006e-2
1.560,   1.006e-2
1.562,   1.006e-2
1.564,   1.006e-2
1.566,   1.006e-2
1.568,   1.006e-2
1.570,   1.006e-2
1.572,   1.006e-2
1.574,   1.006e-2
1.576,   1.006e-2
1.578,   1.006e-2
1.580,   1.006e-2
1.581,   1.006e-2