File: Experimental Records, Raw Data, and Supplementary Notes and Figures/batch3/final400/B3_BEST_400_#8_Full-196mV.txt
Feb. 21, 2023   15:36:43
Linear Sweep Voltammetry
File: d:\current work\al_oer\electrochemical test data\batch 3\400\B3_BEST_400_#8_Full-196mV.txt
Data Source:  Experiment
Instrument Model:  CHI660E
Header:
Note:

Init E (V) = 1.099

Final E (V) = 1.498

Scan Rate (V/s) = 0.010
Sample Interval (V) = 0.001
Quiet Time (sec) = 2
Sensitivity (A/V) = 0.001
Comp R (ohm) = 5.1

Results:

Channel 1:

Potential/V, Current/A
1.099,   3.282e-4
1.101,   3.227e-4
1.103,   2.892e-4
1.105,   2.651e-4
1.107,   2.486e-4
1.109,   2.351e-4
1.111,   2.241e-4
1.113,   2.163e-4
1.115,   2.094e-4
1.117,   2.050e-4
1.119,   2.006e-4
1.121,   1.968e-4
1.123,   1.937e-4
1.125,   1.918e-4
1.127,   1.900e-4
1.129,   1.880e-4
1.131,   1.865e-4
1.133,   1.864e-4
1.135,   1.853e-4
1.137,   1.844e-4
1.139,   1.842e-4
1.141,   1.841e-4
1.143,   1.839e-4
1.145,   1.838e-4
1.147,   1.835e-4
1.149,   1.841e-4
1.151,   1.844e-4
1.153,   1.842e-4
1.155,   1.843e-4
1.157,   1.850e-4
1.159,   1.857e-4
1.161,   1.857e-4
1.163,   1.861e-4
1.165,   1.874e-4
1.167,   1.876e-4
1.169,   1.879e-4
1.171,   1.890e-4
1.173,   1.896e-4
1.175,   1.902e-4
1.177,   1.904e-4
1.179,   1.907e-4
1.181,   1.922e-4
1.183,   1.927e-4
1.185,   1.928e-4
1.187,   1.933e-4
1.189,   1.944e-4
1.191,   1.948e-4
1.193,   1.950e-4
1.195,   1.953e-4
1.197,   1.965e-4
1.199,   1.967e-4
1.201,   1.967e-4
1.203,   1.974e-4
1.205,   1.981e-4
1.207,   1.982e-4
1.209,   1.987e-4
1.211,   1.986e-4
1.213,   1.992e-4
1.215,   1.996e-4
1.217,   1.996e-4
1.219,   1.994e-4
1.221,   1.999e-4
1.223,   1.998e-4
1.225,   1.992e-4
1.227,   1.993e-4
1.229,   2.000e-4
1.231,   1.996e-4
1.233,   1.994e-4
1.235,   1.997e-4
1.237,   1.995e-4
1.239,   1.987e-4
1.241,   1.984e-4
1.243,   1.982e-4
1.245,   1.986e-4
1.247,   1.984e-4
1.249,   1.975e-4
1.251,   1.970e-4
1.253,   1.975e-4
1.255,   1.969e-4
1.257,   1.960e-4
1.259,   1.957e-4
1.261,   1.966e-4
1.263,   1.955e-4
1.265,   1.947e-4
1.267,   1.949e-4
1.269,   1.943e-4
1.271,   1.943e-4
1.273,   1.938e-4
1.275,   1.932e-4
1.277,   1.940e-4
1.279,   1.933e-4
1.281,   1.923e-4
1.283,   1.920e-4
1.285,   1.923e-4
1.287,   1.925e-4
1.289,   1.919e-4
1.291,   1.913e-4
1.293,   1.921e-4
1.295,   1.914e-4
1.297,   1.909e-4
1.299,   1.919e-4
1.301,   1.919e-4
1.303,   1.913e-4
1.305,   1.918e-4
1.307,   1.915e-4
1.309,   1.923e-4
1.311,   1.926e-4
1.313,   1.920e-4
1.315,   1.925e-4
1.317,   1.933e-4
1.319,   1.936e-4
1.321,   1.940e-4
1.323,   1.945e-4
1.325,   1.961e-4
1.327,   1.959e-4
1.329,   1.962e-4
1.331,   1.976e-4
1.333,   1.989e-4
1.335,   1.997e-4
1.337,   2.004e-4
1.339,   2.011e-4
1.341,   2.038e-4
1.343,   2.049e-4
1.345,   2.059e-4
1.347,   2.075e-4
1.349,   2.098e-4
1.351,   2.116e-4
1.353,   2.136e-4
1.355,   2.157e-4
1.357,   2.198e-4
1.359,   2.218e-4
1.361,   2.244e-4
1.363,   2.290e-4
1.365,   2.329e-4
1.367,   2.364e-4
1.369,   2.413e-4
1.371,   2.458e-4
1.373,   2.530e-4
1.375,   2.590e-4
1.377,   2.657e-4
1.379,   2.745e-4
1.381,   2.845e-4
1.383,   2.965e-4
1.385,   3.072e-4
1.387,   3.219e-4
1.389,   3.408e-4
1.391,   3.588e-4
1.393,   3.805e-4
1.395,   4.078e-4
1.397,   4.373e-4
1.399,   4.732e-4
1.401,   5.137e-4
1.403,   5.590e-4
1.405,   6.143e-4
1.407,   6.759e-4
1.409,   7.497e-4
1.411,   8.300e-4
1.413,   9.220e-4
1.415,   1.027e-3
1.417,   1.143e-3
1.419,   1.276e-3
1.421,   1.424e-3
1.423,   1.593e-3
1.425,   1.776e-3
1.427,   1.982e-3
1.429,   2.210e-3
1.431,   2.462e-3
1.433,   2.736e-3
1.435,   3.040e-3
1.437,   3.375e-3
1.439,   3.738e-3
1.441,   4.151e-3
1.443,   4.568e-3
1.445,   5.023e-3
1.447,   5.518e-3
1.449,   6.059e-3
1.451,   6.683e-3
1.453,   7.381e-3
1.455,   8.057e-3
1.457,   8.781e-3
1.459,   9.588e-3
1.461,   1.006e-2
1.463,   1.006e-2
1.465,   1.006e-2
1.467,   1.006e-2
1.469,   1.006e-2
1.471,   1.006e-2
1.473,   1.006e-2
1.475,   1.006e-2
1.477,   1.006e-2
1.479,   1.006e-2
1.481,   1.006e-2
1.483,   1.006e-2
1.485,   1.006e-2
1.487,   1.006e-2
1.489,   1.006e-2
1.491,   1.006e-2
1.493,   1.006e-2
1.495,   1.006e-2
1.497,   1.006e-2
1.498,   1.006e-2