File: Experimental Records, Raw Data, and Supplementary Notes and Figures/batch3/final400/B3_BEST_400_#4_Full-207mV.txt
Feb. 21, 2023   15:02:27
Linear Sweep Voltammetry
File: d:\current work\al_oer\electrochemical test data\batch 3\400\B3_BEST_400_#4_Full-207mV.txt
Data Source:  Experiment
Instrument Model:  CHI660E
Header:
Note:

Init E (V) = 1.099

Final E (V) = 1.476

Scan Rate (V/s) = 0.010
Sample Interval (V) = 0.001
Quiet Time (sec) = 2
Sensitivity (A/V) = 0.001
Comp R (ohm) = 5.1

Results:

Channel 1:

Potential/V, Current/A
1.099,   1.970e-4
1.101,   2.065e-4
1.103,   1.833e-4
1.105,   1.667e-4
1.107,   1.557e-4
1.109,   1.477e-4
1.111,   1.412e-4
1.113,   1.363e-4
1.115,   1.324e-4
1.117,   1.302e-4
1.119,   1.279e-4
1.121,   1.254e-4
1.123,   1.239e-4
1.125,   1.229e-4
1.127,   1.216e-4
1.129,   1.204e-4
1.131,   1.196e-4
1.133,   1.195e-4
1.135,   1.188e-4
1.137,   1.180e-4
1.139,   1.176e-4
1.141,   1.179e-4
1.143,   1.174e-4
1.145,   1.172e-4
1.147,   1.168e-4
1.149,   1.170e-4
1.151,   1.172e-4
1.153,   1.167e-4
1.155,   1.169e-4
1.157,   1.174e-4
1.159,   1.175e-4
1.161,   1.170e-4
1.163,   1.173e-4
1.165,   1.181e-4
1.167,   1.179e-4
1.169,   1.178e-4
1.171,   1.184e-4
1.173,   1.187e-4
1.175,   1.188e-4
1.177,   1.190e-4
1.179,   1.191e-4
1.181,   1.198e-4
1.183,   1.203e-4
1.185,   1.199e-4
1.187,   1.205e-4
1.189,   1.209e-4
1.191,   1.213e-4
1.193,   1.213e-4
1.195,   1.215e-4
1.197,   1.225e-4
1.199,   1.226e-4
1.201,   1.223e-4
1.203,   1.230e-4
1.205,   1.236e-4
1.207,   1.237e-4
1.209,   1.242e-4
1.211,   1.240e-4
1.213,   1.248e-4
1.215,   1.248e-4
1.217,   1.247e-4
1.219,   1.251e-4
1.221,   1.259e-4
1.223,   1.258e-4
1.225,   1.257e-4
1.227,   1.258e-4
1.229,   1.268e-4
1.231,   1.265e-4
1.233,   1.265e-4
1.235,   1.268e-4
1.237,   1.272e-4
1.239,   1.271e-4
1.241,   1.268e-4
1.243,   1.265e-4
1.245,   1.277e-4
1.247,   1.276e-4
1.249,   1.274e-4
1.251,   1.274e-4
1.253,   1.278e-4
1.255,   1.275e-4
1.257,   1.271e-4
1.259,   1.268e-4
1.261,   1.275e-4
1.263,   1.273e-4
1.265,   1.269e-4
1.267,   1.270e-4
1.269,   1.274e-4
1.271,   1.269e-4
1.273,   1.268e-4
1.275,   1.264e-4
1.277,   1.270e-4
1.279,   1.268e-4
1.281,   1.270e-4
1.283,   1.271e-4
1.285,   1.282e-4
1.287,   1.276e-4
1.289,   1.270e-4
1.291,   1.262e-4
1.293,   1.265e-4
1.295,   1.269e-4
1.297,   1.267e-4
1.299,   1.276e-4
1.301,   1.277e-4
1.303,   1.273e-4
1.305,   1.264e-4
1.307,   1.260e-4
1.309,   1.273e-4
1.311,   1.282e-4
1.313,   1.277e-4
1.315,   1.263e-4
1.317,   1.271e-4
1.319,   1.286e-4
1.321,   1.279e-4
1.323,   1.267e-4
1.325,   1.292e-4
1.327,   1.294e-4
1.329,   1.275e-4
1.331,   1.299e-4
1.333,   1.297e-4
1.335,   1.294e-4
1.337,   1.317e-4
1.339,   1.295e-4
1.341,   1.331e-4
1.343,   1.318e-4
1.345,   1.325e-4
1.347,   1.328e-4
1.349,   1.349e-4
1.351,   1.346e-4
1.353,   1.375e-4
1.355,   1.363e-4
1.357,   1.391e-4
1.359,   1.412e-4
1.361,   1.415e-4
1.363,   1.425e-4
1.365,   1.466e-4
1.367,   1.476e-4
1.369,   1.498e-4
1.371,   1.541e-4
1.373,   1.574e-4
1.375,   1.603e-4
1.377,   1.658e-4
1.379,   1.687e-4
1.381,   1.771e-4
1.383,   1.796e-4
1.385,   1.914e-4
1.387,   2.000e-4
1.389,   2.086e-4
1.391,   2.192e-4
1.393,   2.390e-4
1.395,   2.488e-4
1.397,   2.741e-4
1.399,   2.809e-4
1.401,   3.049e-4
1.403,   3.238e-4
1.405,   3.582e-4
1.407,   3.974e-4
1.409,   4.323e-4
1.411,   4.826e-4
1.413,   5.171e-4
1.415,   5.777e-4
1.417,   6.362e-4
1.419,   6.984e-4
1.421,   7.775e-4
1.423,   8.586e-4
1.425,   9.522e-4
1.427,   1.064e-3
1.429,   1.182e-3
1.431,   1.316e-3
1.433,   1.469e-3
1.435,   1.638e-3
1.437,   1.819e-3
1.439,   2.021e-3
1.441,   2.250e-3
1.443,   2.501e-3
1.445,   2.785e-3
1.447,   3.093e-3
1.449,   3.424e-3
1.451,   3.793e-3
1.453,   4.193e-3
1.455,   4.632e-3
1.457,   5.113e-3
1.459,   5.622e-3
1.461,   6.203e-3
1.463,   6.785e-3
1.465,   7.461e-3
1.467,   8.135e-3
1.469,   9.008e-3
1.471,   9.773e-3
1.473,   1.006e-2
1.475,   1.006e-2
1.476,   1.006e-2