File: Experimental Records, Raw Data, and Supplementary Notes and Figures/batch3/final400/B3_BEST_400_#2_High_Quality(#15)-219mV.txt
Feb. 21, 2023   16:35:47
Linear Sweep Voltammetry
File: d:\current work\al_oer\electrochemical test data\batch 3\400\B3_BEST_400_#2_High_Quality(#15)-219mV.txt
Data Source:  Experiment
Instrument Model:  CHI660E
Header:
Note:

Init E (V) = 1.099

Final E (V) = 1.496

Scan Rate (V/s) = 0.010
Sample Interval (V) = 0.001
Quiet Time (sec) = 2
Sensitivity (A/V) = 0.001
Comp R (ohm) = 5.9

Results:

Channel 1:

Potential/V, Current/A
1.099,   2.151e-4
1.101,   1.952e-4
1.103,   1.702e-4
1.105,   1.508e-4
1.107,   1.362e-4
1.109,   1.246e-4
1.111,   1.155e-4
1.113,   1.079e-4
1.115,   1.016e-4
1.117,   9.658e-5
1.119,   9.240e-5
1.121,   8.864e-5
1.123,   8.543e-5
1.125,   8.268e-5
1.127,   8.036e-5
1.129,   7.814e-5
1.131,   7.629e-5
1.133,   7.478e-5
1.135,   7.330e-5
1.137,   7.194e-5
1.139,   7.085e-5
1.141,   6.986e-5
1.143,   6.900e-5
1.145,   6.820e-5
1.147,   6.742e-5
1.149,   6.691e-5
1.151,   6.636e-5
1.153,   6.571e-5
1.155,   6.522e-5
1.157,   6.497e-5
1.159,   6.459e-5
1.161,   6.415e-5
1.163,   6.378e-5
1.165,   6.364e-5
1.167,   6.348e-5
1.169,   6.308e-5
1.171,   6.307e-5
1.173,   6.285e-5
1.175,   6.269e-5
1.177,   6.255e-5
1.179,   6.230e-5
1.181,   6.233e-5
1.183,   6.224e-5
1.185,   6.212e-5
1.187,   6.199e-5
1.189,   6.202e-5
1.191,   6.200e-5
1.193,   6.186e-5
1.195,   6.174e-5
1.197,   6.201e-5
1.199,   6.182e-5
1.201,   6.171e-5
1.203,   6.170e-5
1.205,   6.176e-5
1.207,   6.177e-5
1.209,   6.183e-5
1.211,   6.173e-5
1.213,   6.181e-5
1.215,   6.186e-5
1.217,   6.176e-5
1.219,   6.173e-5
1.221,   6.183e-5
1.223,   6.188e-5
1.225,   6.182e-5
1.227,   6.181e-5
1.229,   6.198e-5
1.231,   6.189e-5
1.233,   6.187e-5
1.235,   6.204e-5
1.237,   6.195e-5
1.239,   6.206e-5
1.241,   6.208e-5
1.243,   6.201e-5
1.245,   6.218e-5
1.247,   6.230e-5
1.249,   6.223e-5
1.251,   6.219e-5
1.253,   6.229e-5
1.255,   6.246e-5
1.257,   6.241e-5
1.259,   6.244e-5
1.261,   6.271e-5
1.263,   6.267e-5
1.265,   6.261e-5
1.267,   6.282e-5
1.269,   6.284e-5
1.271,   6.286e-5
1.273,   6.304e-5
1.275,   6.296e-5
1.277,   6.319e-5
1.279,   6.324e-5
1.281,   6.323e-5
1.283,   6.335e-5
1.285,   6.354e-5
1.287,   6.368e-5
1.289,   6.362e-5
1.291,   6.351e-5
1.293,   6.407e-5
1.295,   6.401e-5
1.297,   6.403e-5
1.299,   6.425e-5
1.301,   6.440e-5
1.303,   6.452e-5
1.305,   6.464e-5
1.307,   6.471e-5
1.309,   6.501e-5
1.311,   6.514e-5
1.313,   6.510e-5
1.315,   6.539e-5
1.317,   6.566e-5
1.319,   6.579e-5
1.321,   6.593e-5
1.323,   6.608e-5
1.325,   6.683e-5
1.327,   6.680e-5
1.329,   6.690e-5
1.331,   6.726e-5
1.333,   6.769e-5
1.335,   6.796e-5
1.337,   6.822e-5
1.339,   6.846e-5
1.341,   6.898e-5
1.343,   6.935e-5
1.345,   6.969e-5
1.347,   7.011e-5
1.349,   7.063e-5
1.351,   7.125e-5
1.353,   7.155e-5
1.355,   7.207e-5
1.357,   7.305e-5
1.359,   7.371e-5
1.361,   7.448e-5
1.363,   7.554e-5
1.365,   7.660e-5
1.367,   7.758e-5
1.369,   7.891e-5
1.371,   8.065e-5
1.373,   8.251e-5
1.375,   8.451e-5
1.377,   8.658e-5
1.379,   8.888e-5
1.381,   9.195e-5
1.383,   9.559e-5
1.385,   9.969e-5
1.387,   1.046e-4
1.389,   1.106e-4
1.391,   1.172e-4
1.393,   1.250e-4
1.395,   1.342e-4
1.397,   1.449e-4
1.399,   1.576e-4
1.401,   1.718e-4
1.403,   1.882e-4
1.405,   2.070e-4
1.407,   2.285e-4
1.409,   2.531e-4
1.411,   2.809e-4
1.413,   3.123e-4
1.415,   3.475e-4
1.417,   3.864e-4
1.419,   4.301e-4
1.421,   4.790e-4
1.423,   5.324e-4
1.425,   5.914e-4
1.427,   6.564e-4
1.429,   7.274e-4
1.431,   8.049e-4
1.433,   8.890e-4
1.435,   9.806e-4
1.437,   1.080e-3
1.439,   1.188e-3
1.441,   1.304e-3
1.443,   1.430e-3
1.445,   1.567e-3
1.447,   1.714e-3
1.449,   1.873e-3
1.451,   2.044e-3
1.453,   2.228e-3
1.455,   2.427e-3
1.457,   2.642e-3
1.459,   2.877e-3
1.461,   3.128e-3
1.463,   3.405e-3
1.465,   3.691e-3
1.467,   4.004e-3
1.469,   4.325e-3
1.471,   4.660e-3
1.473,   5.015e-3
1.475,   5.398e-3
1.477,   5.789e-3
1.479,   6.209e-3
1.481,   6.658e-3
1.483,   7.082e-3
1.485,   7.569e-3
1.487,   8.146e-3
1.489,   8.784e-3
1.491,   9.239e-3
1.493,   9.879e-3
1.495,   1.006e-2
1.496,   1.006e-2