File: Experimental Records, Raw Data, and Supplementary Notes and Figures/batch3/final400/B3_VARIANCE_400_#1_High_Quality(#22)-193mV.txt
Feb. 20, 2023   16:44:06
Linear Sweep Voltammetry
File: d:\current work\al_oer\electrochemical test data\batch 3\400\B3_VARIANCE_400_#1_High_Quality(#22)-193mV.txt
Data Source:  Experiment
Instrument Model:  CHI660E
Header:
Note:

Init E (V) = 1.100

Final E (V) = 1.489

Scan Rate (V/s) = 0.010
Sample Interval (V) = 0.001
Quiet Time (sec) = 2
Sensitivity (A/V) = 0.001
Comp R (ohm) = 4.9

Results:

Channel 1:

Potential/V, Current/A
1.100,   3.428e-4
1.102,   3.008e-4
1.104,   2.660e-4
1.106,   2.381e-4
1.108,   2.156e-4
1.110,   1.972e-4
1.112,   1.824e-4
1.114,   1.695e-4
1.116,   1.586e-4
1.118,   1.492e-4
1.120,   1.411e-4
1.122,   1.342e-4
1.124,   1.280e-4
1.126,   1.226e-4
1.128,   1.180e-4
1.130,   1.137e-4
1.132,   1.099e-4
1.134,   1.067e-4
1.136,   1.037e-4
1.138,   1.011e-4
1.140,   9.869e-5
1.142,   9.659e-5
1.144,   9.471e-5
1.146,   9.287e-5
1.148,   9.132e-5
1.150,   9.006e-5
1.152,   8.871e-5
1.154,   8.747e-5
1.156,   8.647e-5
1.158,   8.555e-5
1.160,   8.480e-5
1.162,   8.381e-5
1.164,   8.304e-5
1.166,   8.247e-5
1.168,   8.203e-5
1.170,   8.223e-5
1.172,   8.200e-5
1.174,   8.116e-5
1.176,   8.099e-5
1.178,   8.059e-5
1.180,   8.064e-5
1.182,   8.036e-5
1.184,   8.014e-5
1.186,   8.013e-5
1.188,   7.979e-5
1.190,   8.008e-5
1.192,   7.927e-5
1.194,   7.900e-5
1.196,   7.890e-5
1.198,   7.960e-5
1.200,   7.932e-5
1.202,   7.938e-5
1.204,   7.874e-5
1.206,   7.883e-5
1.208,   7.879e-5
1.210,   7.877e-5
1.212,   7.870e-5
1.214,   7.899e-5
1.216,   7.916e-5
1.218,   7.913e-5
1.220,   7.944e-5
1.222,   7.922e-5
1.224,   7.965e-5
1.226,   7.993e-5
1.228,   7.966e-5
1.230,   7.999e-5
1.232,   8.015e-5
1.234,   8.034e-5
1.236,   8.053e-5
1.238,   8.078e-5
1.240,   8.105e-5
1.242,   8.117e-5
1.244,   8.145e-5
1.246,   8.166e-5
1.248,   8.192e-5
1.250,   8.215e-5
1.252,   8.242e-5
1.254,   8.274e-5
1.256,   8.303e-5
1.258,   8.322e-5
1.260,   8.360e-5
1.262,   8.401e-5
1.264,   8.429e-5
1.266,   8.462e-5
1.268,   8.501e-5
1.270,   8.540e-5
1.272,   8.589e-5
1.274,   8.637e-5
1.276,   8.669e-5
1.278,   8.693e-5
1.280,   8.745e-5
1.282,   8.784e-5
1.284,   8.834e-5
1.286,   8.890e-5
1.288,   8.949e-5
1.290,   8.988e-5
1.292,   9.041e-5
1.294,   9.106e-5
1.296,   9.165e-5
1.298,   9.234e-5
1.300,   9.306e-5
1.302,   9.381e-5
1.304,   9.458e-5
1.306,   9.533e-5
1.308,   9.622e-5
1.310,   9.705e-5
1.312,   9.798e-5
1.314,   9.884e-5
1.316,   9.978e-5
1.318,   1.008e-4
1.320,   1.019e-4
1.322,   1.032e-4
1.324,   1.042e-4
1.326,   1.058e-4
1.328,   1.070e-4
1.330,   1.083e-4
1.332,   1.098e-4
1.334,   1.115e-4
1.336,   1.132e-4
1.338,   1.151e-4
1.340,   1.170e-4
1.342,   1.192e-4
1.344,   1.215e-4
1.346,   1.238e-4
1.348,   1.266e-4
1.350,   1.297e-4
1.352,   1.330e-4
1.354,   1.366e-4
1.356,   1.406e-4
1.358,   1.452e-4
1.360,   1.500e-4
1.362,   1.554e-4
1.364,   1.616e-4
1.366,   1.684e-4
1.368,   1.762e-4
1.370,   1.849e-4
1.372,   1.944e-4
1.374,   2.056e-4
1.376,   2.179e-4
1.378,   2.321e-4
1.380,   2.481e-4
1.382,   2.663e-4
1.384,   2.869e-4
1.386,   3.100e-4
1.388,   3.364e-4
1.390,   3.664e-4
1.392,   4.004e-4
1.394,   4.383e-4
1.396,   4.811e-4
1.398,   5.293e-4
1.400,   5.836e-4
1.402,   6.441e-4
1.404,   7.114e-4
1.406,   7.868e-4
1.408,   8.702e-4
1.410,   9.629e-4
1.412,   1.065e-3
1.414,   1.177e-3
1.416,   1.301e-3
1.418,   1.436e-3
1.420,   1.583e-3
1.422,   1.744e-3
1.424,   1.916e-3
1.426,   2.104e-3
1.428,   2.304e-3
1.430,   2.519e-3
1.432,   2.747e-3
1.434,   2.989e-3
1.436,   3.246e-3
1.438,   3.515e-3
1.440,   3.794e-3
1.442,   4.085e-3
1.444,   4.387e-3
1.446,   4.699e-3
1.448,   5.018e-3
1.450,   5.337e-3
1.452,   5.661e-3
1.454,   5.983e-3
1.456,   6.300e-3
1.458,   6.612e-3
1.460,   6.910e-3
1.462,   7.197e-3
1.464,   7.463e-3
1.466,   7.711e-3
1.468,   7.936e-3
1.470,   8.136e-3
1.472,   8.307e-3
1.474,   8.455e-3
1.476,   8.571e-3
1.478,   8.662e-3
1.480,   8.725e-3
1.482,   8.762e-3
1.484,   8.773e-3
1.486,   8.769e-3
1.488,   8.739e-3
1.489,   8.718e-3