File: Experimental Records, Raw Data, and Supplementary Notes and Figures/batch3/final400/B3_VARIANCE_400_#3_Full(#11)-263mV.txt
Feb. 20, 2023   15:45:04
Linear Sweep Voltammetry
File: d:\current work\al_oer\electrochemical test data\batch 3\400\B3_VARIANCE_400_#3_Full(#11)-263mV.txt
Data Source:  Experiment
Instrument Model:  CHI660E
Header:
Note:

Init E (V) = 1.089

Final E (V) = 1.658

Scan Rate (V/s) = 0.010
Sample Interval (V) = 0.001
Quiet Time (sec) = 2
Sensitivity (A/V) = 0.001
Comp R (ohm) = 5.3

Results:

Channel 1:
Ep = 1.436V
ip = 5.679e-3A
Ah = 1.208e-1C

Potential/V, Current/A
1.089,   9.252e-5
1.091,   8.172e-5
1.093,   7.194e-5
1.095,   6.425e-5
1.097,   5.818e-5
1.099,   5.325e-5
1.101,   4.921e-5
1.103,   4.583e-5
1.105,   4.302e-5
1.107,   4.057e-5
1.109,   3.849e-5
1.111,   3.684e-5
1.113,   3.525e-5
1.115,   3.386e-5
1.117,   3.267e-5
1.119,   3.162e-5
1.121,   3.060e-5
1.123,   2.980e-5
1.125,   2.905e-5
1.127,   2.831e-5
1.129,   2.770e-5
1.131,   2.722e-5
1.133,   2.673e-5
1.135,   2.631e-5
1.137,   2.586e-5
1.139,   2.553e-5
1.141,   2.519e-5
1.143,   2.486e-5
1.145,   2.460e-5
1.147,   2.441e-5
1.149,   2.419e-5
1.151,   2.399e-5
1.153,   2.383e-5
1.155,   2.368e-5
1.157,   2.351e-5
1.159,   2.367e-5
1.161,   2.320e-5
1.163,   2.321e-5
1.165,   2.312e-5
1.167,   2.305e-5
1.169,   2.296e-5
1.171,   2.291e-5
1.173,   2.288e-5
1.175,   2.283e-5
1.177,   2.283e-5
1.179,   2.277e-5
1.181,   2.277e-5
1.183,   2.274e-5
1.185,   2.271e-5
1.187,   2.275e-5
1.189,   2.274e-5
1.191,   2.271e-5
1.193,   2.276e-5
1.195,   2.279e-5
1.197,   2.280e-5
1.199,   2.277e-5
1.201,   2.276e-5
1.203,   2.282e-5
1.205,   2.282e-5
1.207,   2.288e-5
1.209,   2.286e-5
1.211,   2.291e-5
1.213,   2.292e-5
1.215,   2.296e-5
1.217,   2.299e-5
1.219,   2.302e-5
1.221,   2.306e-5
1.223,   2.307e-5
1.225,   2.313e-5
1.227,   2.318e-5
1.229,   2.323e-5
1.231,   2.323e-5
1.233,   2.324e-5
1.235,   2.327e-5
1.237,   2.338e-5
1.239,   2.339e-5
1.241,   2.340e-5
1.243,   2.348e-5
1.245,   2.349e-5
1.247,   2.353e-5
1.249,   2.361e-5
1.251,   2.369e-5
1.253,   2.370e-5
1.255,   2.372e-5
1.257,   2.378e-5
1.259,   2.385e-5
1.261,   2.391e-5
1.263,   2.395e-5
1.265,   2.404e-5
1.267,   2.411e-5
1.269,   2.413e-5
1.271,   2.420e-5
1.273,   2.424e-5
1.275,   2.432e-5
1.277,   2.438e-5
1.279,   2.447e-5
1.281,   2.451e-5
1.283,   2.464e-5
1.285,   2.465e-5
1.287,   2.471e-5
1.289,   2.486e-5
1.291,   2.494e-5
1.293,   2.503e-5
1.295,   2.510e-5
1.297,   2.519e-5
1.299,   2.531e-5
1.301,   2.539e-5
1.303,   2.549e-5
1.305,   2.558e-5
1.307,   2.572e-5
1.309,   2.587e-5
1.311,   2.601e-5
1.313,   2.603e-5
1.315,   2.629e-5
1.317,   2.639e-5
1.319,   2.655e-5
1.321,   2.666e-5
1.323,   2.684e-5
1.325,   2.697e-5
1.327,   2.717e-5
1.329,   2.732e-5
1.331,   2.752e-5
1.333,   2.772e-5
1.335,   2.791e-5
1.337,   2.814e-5
1.339,   2.840e-5
1.341,   2.869e-5
1.343,   2.891e-5
1.345,   2.920e-5
1.347,   2.956e-5
1.349,   2.992e-5
1.351,   3.020e-5
1.353,   3.069e-5
1.355,   3.111e-5
1.357,   3.162e-5
1.359,   3.218e-5
1.361,   3.273e-5
1.363,   3.345e-5
1.365,   3.415e-5
1.367,   3.505e-5
1.369,   3.596e-5
1.371,   3.699e-5
1.373,   3.802e-5
1.375,   3.927e-5
1.377,   4.076e-5
1.379,   4.243e-5
1.381,   4.429e-5
1.383,   4.637e-5
1.385,   4.873e-5
1.387,   5.149e-5
1.389,   5.441e-5
1.391,   5.771e-5
1.393,   6.145e-5
1.395,   6.560e-5
1.397,   7.025e-5
1.399,   7.542e-5
1.401,   8.118e-5
1.403,   8.745e-5
1.405,   9.437e-5
1.407,   1.019e-4
1.409,   1.102e-4
1.411,   1.193e-4
1.413,   1.293e-4
1.415,   1.400e-4
1.417,   1.518e-4
1.419,   1.647e-4
1.421,   1.785e-4
1.423,   1.934e-4
1.425,   2.095e-4
1.427,   2.269e-4
1.429,   2.459e-4
1.431,   2.661e-4
1.433,   2.878e-4
1.435,   3.123e-4
1.437,   3.380e-4
1.439,   3.650e-4
1.441,   3.921e-4
1.443,   4.217e-4
1.445,   4.557e-4
1.447,   4.937e-4
1.449,   5.248e-4
1.451,   5.648e-4
1.453,   6.050e-4
1.455,   6.460e-4
1.457,   6.994e-4
1.459,   7.478e-4
1.461,   7.964e-4
1.463,   8.485e-4
1.465,   9.056e-4
1.467,   9.585e-4
1.469,   1.016e-3
1.471,   1.075e-3
1.473,   1.136e-3
1.475,   1.202e-3
1.477,   1.270e-3
1.479,   1.339e-3
1.481,   1.409e-3
1.483,   1.484e-3
1.485,   1.566e-3
1.487,   1.642e-3
1.489,   1.721e-3
1.491,   1.804e-3
1.493,   1.887e-3
1.495,   2.011e-3
1.497,   2.082e-3
1.499,   2.161e-3
1.501,   2.237e-3
1.503,   2.313e-3
1.505,   2.395e-3
1.507,   2.480e-3
1.509,   2.566e-3
1.511,   2.651e-3
1.513,   2.739e-3
1.515,   2.827e-3
1.517,   2.916e-3
1.519,   3.006e-3
1.521,   3.095e-3
1.523,   3.184e-3
1.525,   3.275e-3
1.527,   3.362e-3
1.529,   3.449e-3
1.531,   3.534e-3
1.533,   3.623e-3
1.535,   3.708e-3
1.537,   3.793e-3
1.539,   3.878e-3
1.541,   3.962e-3
1.543,   4.045e-3
1.545,   4.126e-3
1.547,   4.207e-3
1.549,   4.289e-3
1.551,   4.367e-3
1.553,   4.444e-3
1.555,   4.520e-3
1.557,   4.594e-3
1.559,   4.668e-3
1.561,   4.739e-3
1.563,   4.811e-3
1.565,   4.882e-3
1.567,   4.948e-3
1.569,   5.011e-3
1.571,   5.075e-3
1.573,   5.138e-3
1.575,   5.196e-3
1.577,   5.254e-3
1.579,   5.307e-3
1.581,   5.358e-3
1.583,   5.409e-3
1.585,   5.462e-3
1.587,   5.511e-3
1.589,   5.553e-3
1.591,   5.597e-3
1.593,   5.636e-3
1.595,   5.671e-3
1.597,   5.705e-3
1.599,   5.740e-3
1.601,   5.767e-3
1.603,   5.795e-3
1.605,   5.817e-3
1.607,   5.839e-3
1.609,   5.861e-3
1.611,   5.879e-3
1.613,   5.892e-3
1.615,   5.904e-3
1.617,   5.917e-3
1.619,   5.923e-3
1.621,   5.928e-3
1.623,   5.934e-3
1.625,   5.937e-3
1.627,   5.934e-3
1.629,   5.932e-3
1.631,   5.928e-3
1.633,   5.922e-3
1.635,   5.918e-3
1.637,   5.909e-3
1.639,   5.897e-3
1.641,   5.892e-3
1.643,   5.877e-3
1.645,   5.861e-3
1.647,   5.842e-3
1.649,   5.823e-3
1.651,   5.802e-3
1.653,   5.782e-3
1.655,   5.759e-3
1.657,   5.737e-3
1.658,   5.725e-3