File: Experimental Records, Raw Data, and Supplementary Notes and Figures/batch3/final400/B3_VARIANCE_400_#2_High_Quality(#23)-188mV.txt
Feb. 21, 2023   15:16:10
Linear Sweep Voltammetry
File: d:\current work\al_oer\electrochemical test data\batch 3\400\B3_VARIANCE_400_#2_High_Quality(#23)-188mV.txt
Data Source:  Experiment
Instrument Model:  CHI660E
Header:
Note:

Init E (V) = 1.101

Final E (V) = 1.583

Scan Rate (V/s) = 0.010
Sample Interval (V) = 0.001
Quiet Time (sec) = 2
Sensitivity (A/V) = 0.001
Comp R (ohm) = 5.8

Results:

Channel 1:
Ep = 1.259V
ip = 9.807e-3A
Ah = 4.620e-2C

Potential/V, Current/A
1.101,   2.499e-3
1.103,   1.873e-3
1.105,   1.479e-3
1.107,   1.217e-3
1.109,   1.034e-3
1.111,   8.979e-4
1.113,   7.952e-4
1.115,   7.165e-4
1.117,   6.531e-4
1.119,   6.012e-4
1.121,   5.588e-4
1.123,   5.223e-4
1.125,   4.922e-4
1.127,   4.656e-4
1.129,   4.424e-4
1.131,   4.224e-4
1.133,   4.057e-4
1.135,   3.909e-4
1.137,   3.777e-4
1.139,   3.652e-4
1.141,   3.547e-4
1.143,   3.458e-4
1.145,   3.371e-4
1.147,   3.294e-4
1.149,   3.227e-4
1.151,   3.165e-4
1.153,   3.104e-4
1.155,   3.048e-4
1.157,   2.999e-4
1.159,   2.957e-4
1.161,   2.915e-4
1.163,   2.880e-4
1.165,   2.845e-4
1.167,   2.816e-4
1.169,   2.786e-4
1.171,   2.757e-4
1.173,   2.737e-4
1.175,   2.718e-4
1.177,   2.700e-4
1.179,   2.679e-4
1.181,   2.662e-4
1.183,   2.650e-4
1.185,   2.638e-4
1.187,   2.626e-4
1.189,   2.611e-4
1.191,   2.603e-4
1.193,   2.595e-4
1.195,   2.583e-4
1.197,   2.574e-4
1.199,   2.570e-4
1.201,   2.562e-4
1.203,   2.557e-4
1.205,   2.552e-4
1.207,   2.546e-4
1.209,   2.542e-4
1.211,   2.539e-4
1.213,   2.534e-4
1.215,   2.538e-4
1.217,   2.537e-4
1.219,   2.532e-4
1.221,   2.527e-4
1.223,   2.529e-4
1.225,   2.528e-4
1.227,   2.524e-4
1.229,   2.523e-4
1.231,   2.529e-4
1.233,   2.529e-4
1.235,   2.525e-4
1.237,   2.530e-4
1.239,   2.529e-4
1.241,   2.532e-4
1.243,   2.529e-4
1.245,   2.530e-4
1.247,   2.536e-4
1.249,   2.535e-4
1.251,   2.534e-4
1.253,   2.536e-4
1.255,   2.541e-4
1.257,   2.543e-4
1.259,   2.541e-4
1.261,   2.544e-4
1.263,   2.552e-4
1.265,   2.548e-4
1.267,   2.546e-4
1.269,   2.547e-4
1.271,   2.551e-4
1.273,   2.554e-4
1.275,   2.559e-4
1.277,   2.560e-4
1.279,   2.567e-4
1.281,   2.569e-4
1.283,   2.573e-4
1.285,   2.572e-4
1.287,   2.580e-4
1.289,   2.588e-4
1.291,   2.594e-4
1.293,   2.596e-4
1.295,   2.608e-4
1.297,   2.610e-4
1.299,   2.612e-4
1.301,   2.619e-4
1.303,   2.630e-4
1.305,   2.636e-4
1.307,   2.642e-4
1.309,   2.651e-4
1.311,   2.660e-4
1.313,   2.669e-4
1.315,   2.679e-4
1.317,   2.686e-4
1.319,   2.701e-4
1.321,   2.715e-4
1.323,   2.726e-4
1.325,   2.740e-4
1.327,   2.765e-4
1.329,   2.773e-4
1.331,   2.790e-4
1.333,   2.807e-4
1.335,   2.830e-4
1.337,   2.848e-4
1.339,   2.871e-4
1.341,   2.891e-4
1.343,   2.917e-4
1.345,   2.941e-4
1.347,   2.969e-4
1.349,   2.999e-4
1.351,   3.037e-4
1.353,   3.077e-4
1.355,   3.117e-4
1.357,   3.164e-4
1.359,   3.221e-4
1.361,   3.270e-4
1.363,   3.329e-4
1.365,   3.400e-4
1.367,   3.480e-4
1.369,   3.566e-4
1.371,   3.666e-4
1.373,   3.766e-4
1.375,   3.903e-4
1.377,   4.043e-4
1.379,   4.197e-4
1.381,   4.384e-4
1.383,   4.596e-4
1.385,   4.834e-4
1.387,   5.109e-4
1.389,   5.425e-4
1.391,   5.790e-4
1.393,   6.189e-4
1.395,   6.650e-4
1.397,   7.175e-4
1.399,   7.771e-4
1.401,   8.446e-4
1.403,   9.215e-4
1.405,   1.006e-3
1.407,   1.103e-3
1.409,   1.209e-3
1.411,   1.326e-3
1.413,   1.455e-3
1.415,   1.599e-3
1.417,   1.759e-3
1.419,   1.932e-3
1.421,   2.125e-3
1.423,   2.332e-3
1.425,   2.558e-3
1.427,   2.803e-3
1.429,   3.068e-3
1.431,   3.357e-3
1.433,   3.665e-3
1.435,   3.995e-3
1.437,   4.354e-3
1.439,   4.729e-3
1.441,   5.121e-3
1.443,   5.548e-3
1.445,   6.004e-3
1.447,   6.524e-3
1.449,   7.005e-3
1.451,   7.528e-3
1.453,   8.070e-3
1.455,   8.582e-3
1.457,   9.559e-3
1.459,   1.006e-2
1.461,   1.006e-2
1.463,   1.006e-2
1.465,   1.006e-2
1.467,   1.006e-2
1.469,   1.006e-2
1.471,   1.006e-2
1.473,   1.006e-2
1.475,   1.006e-2
1.477,   1.006e-2
1.479,   1.006e-2
1.481,   1.006e-2
1.483,   1.006e-2
1.485,   1.006e-2
1.487,   1.006e-2
1.489,   1.006e-2
1.491,   1.006e-2
1.493,   1.006e-2
1.495,   1.006e-2
1.497,   1.006e-2
1.499,   1.006e-2
1.501,   1.006e-2
1.503,   1.006e-2
1.505,   1.006e-2
1.507,   1.006e-2
1.509,   1.006e-2
1.511,   1.006e-2
1.513,   1.006e-2
1.515,   1.006e-2
1.517,   1.006e-2
1.519,   1.006e-2
1.521,   1.006e-2
1.523,   1.006e-2
1.525,   1.006e-2
1.527,   1.006e-2
1.529,   1.006e-2
1.531,   1.006e-2
1.533,   1.006e-2
1.535,   1.006e-2
1.537,   1.006e-2
1.539,   1.006e-2
1.541,   1.006e-2
1.543,   1.006e-2
1.545,   1.006e-2
1.547,   1.006e-2
1.549,   1.006e-2
1.551,   1.006e-2
1.553,   1.006e-2
1.555,   1.006e-2
1.557,   1.006e-2
1.559,   1.006e-2
1.561,   1.006e-2
1.563,   1.006e-2
1.565,   1.006e-2
1.567,   1.006e-2
1.569,   1.006e-2
1.571,   1.006e-2
1.573,   1.006e-2
1.575,   1.006e-2
1.577,   1.006e-2
1.579,   1.006e-2
1.581,   1.006e-2
1.583,   1.006e-2