File: Experimental Records, Raw Data, and Supplementary Notes and Figures/batch3/final400/B3_VARIANCE_400_#3_High_Quality(#24)-234mV.txt
Feb. 20, 2023   15:03:51
Linear Sweep Voltammetry
File: d:\current work\al_oer\electrochemical test data\batch 3\400\B3_VARIANCE_400_#3_High_Quality(#24)-234mV.txt
Data Source:  Experiment
Instrument Model:  CHI660E
Header:
Note:

Init E (V) = 1.099

Final E (V) = 1.512

Scan Rate (V/s) = 0.010
Sample Interval (V) = 0.001
Quiet Time (sec) = 2
Sensitivity (A/V) = 0.001
Comp R (ohm) = 7.2

Results:

Channel 1:

Potential/V, Current/A
1.099,   1.364e-4
1.101,   1.340e-4
1.103,   1.189e-4
1.105,   1.072e-4
1.107,   9.835e-5
1.109,   9.139e-5
1.111,   8.598e-5
1.113,   8.147e-5
1.115,   7.774e-5
1.117,   7.484e-5
1.119,   7.235e-5
1.121,   7.015e-5
1.123,   6.819e-5
1.125,   6.679e-5
1.127,   6.541e-5
1.129,   6.419e-5
1.131,   6.303e-5
1.133,   6.241e-5
1.135,   6.158e-5
1.137,   6.081e-5
1.139,   6.015e-5
1.141,   5.969e-5
1.143,   5.916e-5
1.145,   5.873e-5
1.147,   5.825e-5
1.149,   5.808e-5
1.151,   5.772e-5
1.153,   5.735e-5
1.155,   5.707e-5
1.157,   5.697e-5
1.159,   5.676e-5
1.161,   5.653e-5
1.163,   5.623e-5
1.165,   5.642e-5
1.167,   5.622e-5
1.169,   5.591e-5
1.171,   5.600e-5
1.173,   5.599e-5
1.175,   5.586e-5
1.177,   5.572e-5
1.179,   5.560e-5
1.181,   5.571e-5
1.183,   5.576e-5
1.185,   5.563e-5
1.187,   5.550e-5
1.189,   5.567e-5
1.191,   5.563e-5
1.193,   5.547e-5
1.195,   5.552e-5
1.197,   5.569e-5
1.199,   5.564e-5
1.201,   5.553e-5
1.203,   5.569e-5
1.205,   5.576e-5
1.207,   5.577e-5
1.209,   5.586e-5
1.211,   5.565e-5
1.213,   5.602e-5
1.215,   5.598e-5
1.217,   5.591e-5
1.219,   5.599e-5
1.221,   5.616e-5
1.223,   5.618e-5
1.225,   5.617e-5
1.227,   5.621e-5
1.229,   5.645e-5
1.231,   5.644e-5
1.233,   5.635e-5
1.235,   5.661e-5
1.237,   5.663e-5
1.239,   5.681e-5
1.241,   5.675e-5
1.243,   5.669e-5
1.245,   5.700e-5
1.247,   5.716e-5
1.249,   5.703e-5
1.251,   5.722e-5
1.253,   5.736e-5
1.255,   5.743e-5
1.257,   5.749e-5
1.259,   5.748e-5
1.261,   5.783e-5
1.263,   5.789e-5
1.265,   5.777e-5
1.267,   5.796e-5
1.269,   5.815e-5
1.271,   5.823e-5
1.273,   5.839e-5
1.275,   5.826e-5
1.277,   5.865e-5
1.279,   5.873e-5
1.281,   5.867e-5
1.283,   5.871e-5
1.285,   5.902e-5
1.287,   5.922e-5
1.289,   5.919e-5
1.291,   5.924e-5
1.293,   5.967e-5
1.295,   5.972e-5
1.297,   5.964e-5
1.299,   6.000e-5
1.301,   6.010e-5
1.303,   6.030e-5
1.305,   6.043e-5
1.307,   6.046e-5
1.309,   6.082e-5
1.311,   6.109e-5
1.313,   6.103e-5
1.315,   6.125e-5
1.317,   6.160e-5
1.319,   6.182e-5
1.321,   6.191e-5
1.323,   6.205e-5
1.325,   6.272e-5
1.327,   6.273e-5
1.329,   6.282e-5
1.331,   6.318e-5
1.333,   6.355e-5
1.335,   6.381e-5
1.337,   6.424e-5
1.339,   6.435e-5
1.341,   6.489e-5
1.343,   6.524e-5
1.345,   6.551e-5
1.347,   6.601e-5
1.349,   6.657e-5
1.351,   6.710e-5
1.353,   6.744e-5
1.355,   6.796e-5
1.357,   6.880e-5
1.359,   6.939e-5
1.361,   7.000e-5
1.363,   7.099e-5
1.365,   7.191e-5
1.367,   7.269e-5
1.369,   7.382e-5
1.371,   7.470e-5
1.373,   7.637e-5
1.375,   7.779e-5
1.377,   7.924e-5
1.379,   8.098e-5
1.381,   8.319e-5
1.383,   8.534e-5
1.385,   8.776e-5
1.387,   9.057e-5
1.389,   9.403e-5
1.391,   9.757e-5
1.393,   1.015e-4
1.395,   1.063e-4
1.397,   1.115e-4
1.399,   1.175e-4
1.401,   1.243e-4
1.403,   1.317e-4
1.405,   1.404e-4
1.407,   1.501e-4
1.409,   1.609e-4
1.411,   1.732e-4
1.413,   1.871e-4
1.415,   2.024e-4
1.417,   2.196e-4
1.419,   2.389e-4
1.421,   2.610e-4
1.423,   2.849e-4
1.425,   3.118e-4
1.427,   3.419e-4
1.429,   3.750e-4
1.431,   4.118e-4
1.433,   4.525e-4
1.435,   4.974e-4
1.437,   5.470e-4
1.439,   6.013e-4
1.441,   6.611e-4
1.443,   7.266e-4
1.445,   7.987e-4
1.447,   8.768e-4
1.449,   9.623e-4
1.451,   1.055e-3
1.453,   1.156e-3
1.455,   1.266e-3
1.457,   1.384e-3
1.459,   1.511e-3
1.461,   1.650e-3
1.463,   1.798e-3
1.465,   1.957e-3
1.467,   2.130e-3
1.469,   2.312e-3
1.471,   2.506e-3
1.473,   2.710e-3
1.475,   2.928e-3
1.477,   3.159e-3
1.479,   3.405e-3
1.481,   3.670e-3
1.483,   3.939e-3
1.485,   4.243e-3
1.487,   4.546e-3
1.489,   4.869e-3
1.491,   5.243e-3
1.493,   5.599e-3
1.495,   5.935e-3
1.497,   6.320e-3
1.499,   6.849e-3
1.501,   7.440e-3
1.503,   7.817e-3
1.505,   8.283e-3
1.507,   8.753e-3
1.509,   9.155e-3
1.511,   9.777e-3
1.512,   1.006e-2