File: Experimental Records, Raw Data, and Supplementary Notes and Figures/batch2/final400/B2_BEST_400#10_Full-251mV.txt
Jan. 18, 2023   14:04:53
Linear Sweep Voltammetry
File: d:\current work\al_oer\electrochemical test data\batch 2\400\B2_BEST_400#10_Full-251mV.txt
Data Source:  Experiment
Instrument Model:  CHI660E
Header:
Note:

Init E (V) = 1.098

Final E (V) = 1.670

Scan Rate (V/s) = 0.010
Sample Interval (V) = 0.001
Quiet Time (sec) = 2
Sensitivity (A/V) = 0.001
Comp R (ohm) = 4.9

Results:

Channel 1:

Potential/V, Current/A
1.098,   1.763e-4
1.100,   1.592e-4
1.102,   1.439e-4
1.104,   1.311e-4
1.106,   1.209e-4
1.108,   1.122e-4
1.110,   1.052e-4
1.112,   9.935e-5
1.114,   9.389e-5
1.116,   8.944e-5
1.118,   8.553e-5
1.120,   8.195e-5
1.122,   7.889e-5
1.124,   7.626e-5
1.126,   7.368e-5
1.128,   7.149e-5
1.130,   6.953e-5
1.132,   6.783e-5
1.134,   6.615e-5
1.136,   6.461e-5
1.138,   6.338e-5
1.140,   6.210e-5
1.142,   6.102e-5
1.144,   6.014e-5
1.146,   5.913e-5
1.148,   5.826e-5
1.150,   5.751e-5
1.152,   5.674e-5
1.154,   5.604e-5
1.156,   5.543e-5
1.158,   5.488e-5
1.160,   5.444e-5
1.162,   5.397e-5
1.164,   5.346e-5
1.166,   5.307e-5
1.168,   5.262e-5
1.170,   5.234e-5
1.172,   5.206e-5
1.174,   5.175e-5
1.176,   5.145e-5
1.178,   5.124e-5
1.180,   5.098e-5
1.182,   5.078e-5
1.184,   5.056e-5
1.186,   5.041e-5
1.188,   5.026e-5
1.190,   5.012e-5
1.192,   5.002e-5
1.194,   4.984e-5
1.196,   4.974e-5
1.198,   4.967e-5
1.200,   4.959e-5
1.202,   4.951e-5
1.204,   4.957e-5
1.206,   4.952e-5
1.208,   4.949e-5
1.210,   4.950e-5
1.212,   4.948e-5
1.214,   4.942e-5
1.216,   4.932e-5
1.218,   4.929e-5
1.220,   4.935e-5
1.222,   4.938e-5
1.224,   4.951e-5
1.226,   4.940e-5
1.228,   4.949e-5
1.230,   4.944e-5
1.232,   4.949e-5
1.234,   4.955e-5
1.236,   4.968e-5
1.238,   4.970e-5
1.240,   4.988e-5
1.242,   4.995e-5
1.244,   4.994e-5
1.246,   5.002e-5
1.248,   5.008e-5
1.250,   5.006e-5
1.252,   5.014e-5
1.254,   5.026e-5
1.256,   5.034e-5
1.258,   5.045e-5
1.260,   5.057e-5
1.262,   5.071e-5
1.264,   5.073e-5
1.266,   5.079e-5
1.268,   5.094e-5
1.270,   5.101e-5
1.272,   5.112e-5
1.274,   5.119e-5
1.276,   5.137e-5
1.278,   5.141e-5
1.280,   5.144e-5
1.282,   5.155e-5
1.284,   5.169e-5
1.286,   5.194e-5
1.288,   5.201e-5
1.290,   5.212e-5
1.292,   5.226e-5
1.294,   5.243e-5
1.296,   5.249e-5
1.298,   5.272e-5
1.300,   5.288e-5
1.302,   5.299e-5
1.304,   5.315e-5
1.306,   5.334e-5
1.308,   5.348e-5
1.310,   5.367e-5
1.312,   5.383e-5
1.314,   5.396e-5
1.316,   5.425e-5
1.318,   5.439e-5
1.320,   5.464e-5
1.322,   5.480e-5
1.324,   5.516e-5
1.326,   5.529e-5
1.328,   5.541e-5
1.330,   5.571e-5
1.332,   5.603e-5
1.334,   5.623e-5
1.336,   5.651e-5
1.338,   5.691e-5
1.340,   5.713e-5
1.342,   5.758e-5
1.344,   5.779e-5
1.346,   5.811e-5
1.348,   5.848e-5
1.350,   5.893e-5
1.352,   5.932e-5
1.354,   5.978e-5
1.356,   6.033e-5
1.358,   6.073e-5
1.360,   6.133e-5
1.362,   6.213e-5
1.364,   6.276e-5
1.366,   6.354e-5
1.368,   6.459e-5
1.370,   6.554e-5
1.372,   6.678e-5
1.374,   6.802e-5
1.376,   6.957e-5
1.378,   7.119e-5
1.380,   7.305e-5
1.382,   7.521e-5
1.384,   7.771e-5
1.386,   8.017e-5
1.388,   8.331e-5
1.390,   8.658e-5
1.392,   9.047e-5
1.394,   9.492e-5
1.396,   9.951e-5
1.398,   1.050e-4
1.400,   1.108e-4
1.402,   1.175e-4
1.404,   1.247e-4
1.406,   1.328e-4
1.408,   1.417e-4
1.410,   1.516e-4
1.412,   1.630e-4
1.414,   1.755e-4
1.416,   1.891e-4
1.418,   2.057e-4
1.420,   2.231e-4
1.422,   2.418e-4
1.424,   2.619e-4
1.426,   2.838e-4
1.428,   3.086e-4
1.430,   3.352e-4
1.432,   3.631e-4
1.434,   3.939e-4
1.436,   4.262e-4
1.438,   4.612e-4
1.440,   4.995e-4
1.442,   5.395e-4
1.444,   5.830e-4
1.446,   6.298e-4
1.448,   6.789e-4
1.450,   7.297e-4
1.452,   7.849e-4
1.454,   8.409e-4
1.456,   9.022e-4
1.458,   9.654e-4
1.460,   1.029e-3
1.462,   1.104e-3
1.464,   1.179e-3
1.466,   1.256e-3
1.468,   1.334e-3
1.470,   1.421e-3
1.472,   1.506e-3
1.474,   1.593e-3
1.476,   1.686e-3
1.478,   1.780e-3
1.480,   1.874e-3
1.482,   1.977e-3
1.484,   2.073e-3
1.486,   2.180e-3
1.488,   2.276e-3
1.490,   2.391e-3
1.492,   2.492e-3
1.494,   2.597e-3
1.496,   2.709e-3
1.498,   2.818e-3
1.500,   2.923e-3
1.502,   3.035e-3
1.504,   3.136e-3
1.506,   3.239e-3
1.508,   3.339e-3
1.510,   3.425e-3
1.512,   3.541e-3
1.514,   3.637e-3
1.516,   3.726e-3
1.518,   3.814e-3
1.520,   3.895e-3
1.522,   3.979e-3
1.524,   4.042e-3
1.526,   4.121e-3
1.528,   4.195e-3
1.530,   4.254e-3
1.532,   4.313e-3
1.534,   4.369e-3
1.536,   4.429e-3
1.538,   4.467e-3
1.540,   4.519e-3
1.542,   4.562e-3
1.544,   4.600e-3
1.546,   4.633e-3
1.548,   4.674e-3
1.550,   4.700e-3
1.552,   4.745e-3
1.554,   4.773e-3
1.556,   4.787e-3
1.558,   4.833e-3
1.560,   4.852e-3
1.562,   4.869e-3
1.564,   4.893e-3
1.566,   4.911e-3
1.568,   4.959e-3
1.570,   4.982e-3
1.572,   4.998e-3
1.574,   5.005e-3
1.576,   5.029e-3
1.578,   5.057e-3
1.580,   5.080e-3
1.582,   5.100e-3
1.584,   5.117e-3
1.586,   5.129e-3
1.588,   5.163e-3
1.590,   5.192e-3
1.592,   5.213e-3
1.594,   5.227e-3
1.596,   5.253e-3
1.598,   5.267e-3
1.600,   5.286e-3
1.602,   5.304e-3
1.604,   5.326e-3
1.606,   5.365e-3
1.608,   5.394e-3
1.610,   5.403e-3
1.612,   5.421e-3
1.614,   5.444e-3
1.616,   5.453e-3
1.618,   5.470e-3
1.620,   5.487e-3
1.622,   5.493e-3
1.624,   5.534e-3
1.626,   5.539e-3
1.628,   5.560e-3
1.630,   5.574e-3
1.632,   5.591e-3
1.634,   5.599e-3
1.636,   5.623e-3
1.638,   5.635e-3
1.640,   5.644e-3
1.642,   5.656e-3
1.644,   5.667e-3
1.646,   5.680e-3
1.648,   5.678e-3
1.650,   5.685e-3
1.652,   5.688e-3
1.654,   5.693e-3
1.656,   5.699e-3
1.658,   5.695e-3
1.660,   5.698e-3
1.662,   5.697e-3
1.664,   5.696e-3
1.666,   5.678e-3
1.668,   5.675e-3
1.670,   5.655e-3