File: Experimental Records, Raw Data, and Supplementary Notes and Figures/batch2/final400/B2_BEST_400#12_Full-281mV.txt
Jan. 18, 2023   14:41:13
Linear Sweep Voltammetry
File: d:\current work\al_oer\electrochemical test data\batch 2\400\B2_BEST_400#12_Full-281mV.txt
Data Source:  Experiment
Instrument Model:  CHI660E
Header:
Note:

Init E (V) = 1.098

Final E (V) = 1.659

Scan Rate (V/s) = 0.010
Sample Interval (V) = 0.001
Quiet Time (sec) = 2
Sensitivity (A/V) = 0.001
Comp R (ohm) = 4.8

Results:

Channel 1:

Potential/V, Current/A
1.098,   1.112e-4
1.100,   9.969e-5
1.102,   8.915e-5
1.104,   8.072e-5
1.106,   7.367e-5
1.108,   6.801e-5
1.110,   6.346e-5
1.112,   5.955e-5
1.114,   5.611e-5
1.116,   5.322e-5
1.118,   5.081e-5
1.120,   4.863e-5
1.122,   4.685e-5
1.124,   4.527e-5
1.126,   4.370e-5
1.128,   4.229e-5
1.130,   4.115e-5
1.132,   4.018e-5
1.134,   3.916e-5
1.136,   3.831e-5
1.138,   3.757e-5
1.140,   3.691e-5
1.142,   3.632e-5
1.144,   3.566e-5
1.146,   3.517e-5
1.148,   3.463e-5
1.150,   3.404e-5
1.152,   3.361e-5
1.154,   3.316e-5
1.156,   3.281e-5
1.158,   3.245e-5
1.160,   3.224e-5
1.162,   3.193e-5
1.164,   3.167e-5
1.166,   3.141e-5
1.168,   3.109e-5
1.170,   3.090e-5
1.172,   3.066e-5
1.174,   3.043e-5
1.176,   3.024e-5
1.178,   3.008e-5
1.180,   2.988e-5
1.182,   2.972e-5
1.184,   2.953e-5
1.186,   2.934e-5
1.188,   2.920e-5
1.190,   2.912e-5
1.192,   2.899e-5
1.194,   2.885e-5
1.196,   2.881e-5
1.198,   2.868e-5
1.200,   2.855e-5
1.202,   2.841e-5
1.204,   2.835e-5
1.206,   2.835e-5
1.208,   2.822e-5
1.210,   2.820e-5
1.212,   2.818e-5
1.214,   2.812e-5
1.216,   2.811e-5
1.218,   2.809e-5
1.220,   2.799e-5
1.222,   2.802e-5
1.224,   2.801e-5
1.226,   2.793e-5
1.228,   2.795e-5
1.230,   2.797e-5
1.232,   2.788e-5
1.234,   2.795e-5
1.236,   2.793e-5
1.238,   2.798e-5
1.240,   2.793e-5
1.242,   2.792e-5
1.244,   2.799e-5
1.246,   2.806e-5
1.248,   2.803e-5
1.250,   2.806e-5
1.252,   2.811e-5
1.254,   2.814e-5
1.256,   2.813e-5
1.258,   2.814e-5
1.260,   2.828e-5
1.262,   2.828e-5
1.264,   2.829e-5
1.266,   2.839e-5
1.268,   2.843e-5
1.270,   2.849e-5
1.272,   2.848e-5
1.274,   2.858e-5
1.276,   2.864e-5
1.278,   2.877e-5
1.280,   2.880e-5
1.282,   2.882e-5
1.284,   2.892e-5
1.286,   2.896e-5
1.288,   2.902e-5
1.290,   2.908e-5
1.292,   2.921e-5
1.294,   2.933e-5
1.296,   2.934e-5
1.298,   2.944e-5
1.300,   2.956e-5
1.302,   2.970e-5
1.304,   2.975e-5
1.306,   2.985e-5
1.308,   2.995e-5
1.310,   3.002e-5
1.312,   3.010e-5
1.314,   3.021e-5
1.316,   3.033e-5
1.318,   3.046e-5
1.320,   3.057e-5
1.322,   3.065e-5
1.324,   3.084e-5
1.326,   3.095e-5
1.328,   3.114e-5
1.330,   3.125e-5
1.332,   3.142e-5
1.334,   3.162e-5
1.336,   3.180e-5
1.338,   3.192e-5
1.340,   3.215e-5
1.342,   3.236e-5
1.344,   3.252e-5
1.346,   3.278e-5
1.348,   3.311e-5
1.350,   3.338e-5
1.352,   3.362e-5
1.354,   3.399e-5
1.356,   3.430e-5
1.358,   3.471e-5
1.360,   3.509e-5
1.362,   3.559e-5
1.364,   3.605e-5
1.366,   3.651e-5
1.368,   3.704e-5
1.370,   3.763e-5
1.372,   3.828e-5
1.374,   3.901e-5
1.376,   3.975e-5
1.378,   4.057e-5
1.380,   4.157e-5
1.382,   4.264e-5
1.384,   4.376e-5
1.386,   4.500e-5
1.388,   4.646e-5
1.390,   4.807e-5
1.392,   4.969e-5
1.394,   5.164e-5
1.396,   5.360e-5
1.398,   5.594e-5
1.400,   5.851e-5
1.402,   6.134e-5
1.404,   6.447e-5
1.406,   6.790e-5
1.408,   7.169e-5
1.410,   7.593e-5
1.412,   8.047e-5
1.414,   8.564e-5
1.416,   9.109e-5
1.418,   9.715e-5
1.420,   1.037e-4
1.422,   1.109e-4
1.424,   1.188e-4
1.426,   1.279e-4
1.428,   1.374e-4
1.430,   1.491e-4
1.432,   1.595e-4
1.434,   1.713e-4
1.436,   1.840e-4
1.438,   1.979e-4
1.440,   2.128e-4
1.442,   2.289e-4
1.444,   2.464e-4
1.446,   2.650e-4
1.448,   2.847e-4
1.450,   3.064e-4
1.452,   3.289e-4
1.454,   3.523e-4
1.456,   3.793e-4
1.458,   4.077e-4
1.460,   4.377e-4
1.462,   4.690e-4
1.464,   4.974e-4
1.466,   5.314e-4
1.468,   5.672e-4
1.470,   6.089e-4
1.472,   6.503e-4
1.474,   6.963e-4
1.476,   7.426e-4
1.478,   7.902e-4
1.480,   8.397e-4
1.482,   8.909e-4
1.484,   9.456e-4
1.486,   1.006e-3
1.488,   1.067e-3
1.490,   1.129e-3
1.492,   1.189e-3
1.494,   1.253e-3
1.496,   1.322e-3
1.498,   1.393e-3
1.500,   1.471e-3
1.502,   1.549e-3
1.504,   1.625e-3
1.506,   1.704e-3
1.508,   1.791e-3
1.510,   1.878e-3
1.512,   1.978e-3
1.514,   2.067e-3
1.516,   2.165e-3
1.518,   2.255e-3
1.520,   2.349e-3
1.522,   2.453e-3
1.524,   2.552e-3
1.526,   2.654e-3
1.528,   2.745e-3
1.530,   2.847e-3
1.532,   2.959e-3
1.534,   3.070e-3
1.536,   3.181e-3
1.538,   3.276e-3
1.540,   3.388e-3
1.542,   3.501e-3
1.544,   3.605e-3
1.546,   3.720e-3
1.548,   3.831e-3
1.550,   3.940e-3
1.552,   4.066e-3
1.554,   4.185e-3
1.556,   4.318e-3
1.558,   4.424e-3
1.560,   4.535e-3
1.562,   4.656e-3
1.564,   4.776e-3
1.566,   4.899e-3
1.568,   5.066e-3
1.570,   5.186e-3
1.572,   5.309e-3
1.574,   5.428e-3
1.576,   5.556e-3
1.578,   5.682e-3
1.580,   5.793e-3
1.582,   5.907e-3
1.584,   6.031e-3
1.586,   6.159e-3
1.588,   6.277e-3
1.590,   6.389e-3
1.592,   6.522e-3
1.594,   6.667e-3
1.596,   6.803e-3
1.598,   6.921e-3
1.600,   7.045e-3
1.602,   7.181e-3
1.604,   7.299e-3
1.606,   7.419e-3
1.608,   7.522e-3
1.610,   7.691e-3
1.612,   7.807e-3
1.614,   7.920e-3
1.616,   8.119e-3
1.618,   8.390e-3
1.620,   8.477e-3
1.622,   8.627e-3
1.624,   8.751e-3
1.626,   8.846e-3
1.628,   8.961e-3
1.630,   9.107e-3
1.632,   9.232e-3
1.634,   9.293e-3
1.636,   9.400e-3
1.638,   9.570e-3
1.640,   9.699e-3
1.642,   9.826e-3
1.644,   9.932e-3
1.646,   1.002e-2
1.648,   1.007e-2
1.650,   1.007e-2
1.652,   1.007e-2
1.654,   1.007e-2
1.656,   1.007e-2
1.658,   1.007e-2
1.659,   1.007e-2