File: Experimental Records, Raw Data, and Supplementary Notes and Figures/batch2/final400/B2_BEST_400#19_Full-241mV.txt
Jan. 18, 2023   15:05:33
Linear Sweep Voltammetry
File: d:\current work\al_oer\electrochemical test data\batch 2\400\B2_BEST_400#19_Full-241mV.txt
Data Source:  Experiment
Instrument Model:  CHI660E
Header:
Note:

Init E (V) = 1.099

Final E (V) = 1.532

Scan Rate (V/s) = 0.010
Sample Interval (V) = 0.001
Quiet Time (sec) = 2
Sensitivity (A/V) = 0.001
Comp R (ohm) = 5.6

Results:

Channel 1:

Potential/V, Current/A
1.099,   1.061e-4
1.101,   1.149e-4
1.103,   1.059e-4
1.105,   9.890e-5
1.107,   9.333e-5
1.109,   8.879e-5
1.111,   8.518e-5
1.113,   8.209e-5
1.115,   7.941e-5
1.117,   7.762e-5
1.119,   7.594e-5
1.121,   7.408e-5
1.123,   7.270e-5
1.125,   7.198e-5
1.127,   7.065e-5
1.129,   6.958e-5
1.131,   6.882e-5
1.133,   6.826e-5
1.135,   6.751e-5
1.137,   6.703e-5
1.139,   6.646e-5
1.141,   6.613e-5
1.143,   6.578e-5
1.145,   6.545e-5
1.147,   6.493e-5
1.149,   6.490e-5
1.151,   6.476e-5
1.153,   6.427e-5
1.155,   6.403e-5
1.157,   6.425e-5
1.159,   6.401e-5
1.161,   6.370e-5
1.163,   6.375e-5
1.165,   6.378e-5
1.167,   6.349e-5
1.169,   6.355e-5
1.171,   6.361e-5
1.173,   6.350e-5
1.175,   6.356e-5
1.177,   6.355e-5
1.179,   6.337e-5
1.181,   6.365e-5
1.183,   6.374e-5
1.185,   6.350e-5
1.187,   6.356e-5
1.189,   6.408e-5
1.191,   6.388e-5
1.193,   6.381e-5
1.195,   6.404e-5
1.197,   6.441e-5
1.199,   6.423e-5
1.201,   6.430e-5
1.203,   6.438e-5
1.205,   6.460e-5
1.207,   6.481e-5
1.209,   6.496e-5
1.211,   6.463e-5
1.213,   6.498e-5
1.215,   6.537e-5
1.217,   6.527e-5
1.219,   6.505e-5
1.221,   6.563e-5
1.223,   6.578e-5
1.225,   6.547e-5
1.227,   6.579e-5
1.229,   6.625e-5
1.231,   6.613e-5
1.233,   6.607e-5
1.235,   6.639e-5
1.237,   6.653e-5
1.239,   6.653e-5
1.241,   6.659e-5
1.243,   6.662e-5
1.245,   6.675e-5
1.247,   6.722e-5
1.249,   6.695e-5
1.251,   6.687e-5
1.253,   6.727e-5
1.255,   6.735e-5
1.257,   6.712e-5
1.259,   6.753e-5
1.261,   6.772e-5
1.263,   6.763e-5
1.265,   6.775e-5
1.267,   6.770e-5
1.269,   6.788e-5
1.271,   6.810e-5
1.273,   6.825e-5
1.275,   6.791e-5
1.277,   6.838e-5
1.279,   6.852e-5
1.281,   6.815e-5
1.283,   6.827e-5
1.285,   6.872e-5
1.287,   6.874e-5
1.289,   6.857e-5
1.291,   6.889e-5
1.293,   6.905e-5
1.295,   6.892e-5
1.297,   6.920e-5
1.299,   6.920e-5
1.301,   6.942e-5
1.303,   6.958e-5
1.305,   6.961e-5
1.307,   6.944e-5
1.309,   6.997e-5
1.311,   7.014e-5
1.313,   6.972e-5
1.315,   6.998e-5
1.317,   7.048e-5
1.319,   7.049e-5
1.321,   7.034e-5
1.323,   7.066e-5
1.325,   7.097e-5
1.327,   7.110e-5
1.329,   7.119e-5
1.331,   7.140e-5
1.333,   7.161e-5
1.335,   7.195e-5
1.337,   7.207e-5
1.339,   7.202e-5
1.341,   7.259e-5
1.343,   7.292e-5
1.345,   7.295e-5
1.347,   7.338e-5
1.349,   7.400e-5
1.351,   7.421e-5
1.353,   7.468e-5
1.355,   7.514e-5
1.357,   7.575e-5
1.359,   7.637e-5
1.361,   7.695e-5
1.363,   7.745e-5
1.365,   7.831e-5
1.367,   7.928e-5
1.369,   8.014e-5
1.371,   8.074e-5
1.373,   8.233e-5
1.375,   8.361e-5
1.377,   8.471e-5
1.379,   8.619e-5
1.381,   8.836e-5
1.383,   8.994e-5
1.385,   9.203e-5
1.387,   9.442e-5
1.389,   9.721e-5
1.391,   1.000e-4
1.393,   1.033e-4
1.395,   1.070e-4
1.397,   1.115e-4
1.399,   1.163e-4
1.401,   1.215e-4
1.403,   1.271e-4
1.405,   1.343e-4
1.407,   1.415e-4
1.409,   1.496e-4
1.411,   1.591e-4
1.413,   1.698e-4
1.415,   1.811e-4
1.417,   1.942e-4
1.419,   2.083e-4
1.421,   2.243e-4
1.423,   2.425e-4
1.425,   2.621e-4
1.427,   2.848e-4
1.429,   3.089e-4
1.431,   3.363e-4
1.433,   3.657e-4
1.435,   3.980e-4
1.437,   4.347e-4
1.439,   4.743e-4
1.441,   5.181e-4
1.443,   5.659e-4
1.445,   6.191e-4
1.447,   6.760e-4
1.449,   7.387e-4
1.451,   8.063e-4
1.453,   8.813e-4
1.455,   9.618e-4
1.457,   1.049e-3
1.459,   1.142e-3
1.461,   1.244e-3
1.463,   1.356e-3
1.465,   1.474e-3
1.467,   1.600e-3
1.469,   1.740e-3
1.471,   1.883e-3
1.473,   2.038e-3
1.475,   2.232e-3
1.477,   2.407e-3
1.479,   2.593e-3
1.481,   2.799e-3
1.483,   3.010e-3
1.485,   3.238e-3
1.487,   3.466e-3
1.489,   3.735e-3
1.491,   4.014e-3
1.493,   4.301e-3
1.495,   4.579e-3
1.497,   4.870e-3
1.499,   5.184e-3
1.501,   5.497e-3
1.503,   5.840e-3
1.505,   6.181e-3
1.507,   6.519e-3
1.509,   6.903e-3
1.511,   7.320e-3
1.513,   7.768e-3
1.515,   8.121e-3
1.517,   8.577e-3
1.519,   9.065e-3
1.521,   9.779e-3
1.523,   1.007e-2
1.525,   1.007e-2
1.527,   1.007e-2
1.529,   1.007e-2
1.531,   1.007e-2
1.532,   1.007e-2