File: Experimental Records, Raw Data, and Supplementary Notes and Figures/batch2/final400/B2_BEST_400#17_High_Quality-250mV.txt
Jan. 14, 2023   15:34:57
Linear Sweep Voltammetry
File: d:\current work\al_oer\electrochemical test data\batch 2\400\B2_BEST_400#17_High_Quality-250mV.txt
Data Source:  Experiment
Instrument Model:  CHI660E
Header:
Note:

Init E (V) = 1.099

Final E (V) = 1.698

Scan Rate (V/s) = 0.010
Sample Interval (V) = 0.001
Quiet Time (sec) = 2
Sensitivity (A/V) = 0.001
Comp R (ohm) = 6.2

Results:

Channel 1:
Ep = 1.335V
ip = 1.001e-2A
Ah = 5.841e-2C

Potential/V, Current/A
1.099,   1.151e-4
1.101,   1.059e-4
1.103,   9.513e-5
1.105,   8.658e-5
1.107,   7.984e-5
1.109,   7.417e-5
1.111,   6.953e-5
1.113,   6.566e-5
1.115,   6.227e-5
1.117,   5.954e-5
1.119,   5.707e-5
1.121,   5.496e-5
1.123,   5.311e-5
1.125,   5.148e-5
1.127,   4.991e-5
1.129,   4.865e-5
1.131,   4.747e-5
1.133,   4.641e-5
1.135,   4.546e-5
1.137,   4.451e-5
1.139,   4.379e-5
1.141,   4.314e-5
1.143,   4.251e-5
1.145,   4.198e-5
1.147,   4.144e-5
1.149,   4.097e-5
1.151,   4.057e-5
1.153,   4.017e-5
1.155,   3.979e-5
1.157,   3.954e-5
1.159,   3.922e-5
1.161,   3.898e-5
1.163,   3.870e-5
1.165,   3.849e-5
1.167,   3.831e-5
1.169,   3.809e-5
1.171,   3.797e-5
1.173,   3.793e-5
1.175,   3.774e-5
1.177,   3.762e-5
1.179,   3.752e-5
1.181,   3.748e-5
1.183,   3.745e-5
1.185,   3.733e-5
1.187,   3.726e-5
1.189,   3.724e-5
1.191,   3.716e-5
1.193,   3.712e-5
1.195,   3.711e-5
1.197,   3.713e-5
1.199,   3.715e-5
1.201,   3.710e-5
1.203,   3.707e-5
1.205,   3.710e-5
1.207,   3.711e-5
1.209,   3.714e-5
1.211,   3.714e-5
1.213,   3.716e-5
1.215,   3.722e-5
1.217,   3.723e-5
1.219,   3.724e-5
1.221,   3.731e-5
1.223,   3.737e-5
1.225,   3.735e-5
1.227,   3.734e-5
1.229,   3.746e-5
1.231,   3.748e-5
1.233,   3.750e-5
1.235,   3.763e-5
1.237,   3.767e-5
1.239,   3.772e-5
1.241,   3.771e-5
1.243,   3.776e-5
1.245,   3.787e-5
1.247,   3.792e-5
1.249,   3.790e-5
1.251,   3.794e-5
1.253,   3.811e-5
1.255,   3.817e-5
1.257,   3.818e-5
1.259,   3.820e-5
1.261,   3.840e-5
1.263,   3.837e-5
1.265,   3.842e-5
1.267,   3.849e-5
1.269,   3.859e-5
1.271,   3.866e-5
1.273,   3.869e-5
1.275,   3.870e-5
1.277,   3.884e-5
1.279,   3.891e-5
1.281,   3.892e-5
1.283,   3.905e-5
1.285,   3.911e-5
1.287,   3.925e-5
1.289,   3.924e-5
1.291,   3.932e-5
1.293,   3.948e-5
1.295,   3.954e-5
1.297,   3.958e-5
1.299,   3.973e-5
1.301,   3.984e-5
1.303,   3.986e-5
1.305,   3.992e-5
1.307,   3.999e-5
1.309,   4.018e-5
1.311,   4.029e-5
1.313,   4.044e-5
1.315,   4.056e-5
1.317,   4.075e-5
1.319,   4.080e-5
1.321,   4.095e-5
1.323,   4.107e-5
1.325,   4.134e-5
1.327,   4.142e-5
1.329,   4.159e-5
1.331,   4.183e-5
1.333,   4.202e-5
1.335,   4.219e-5
1.337,   4.240e-5
1.339,   4.257e-5
1.341,   4.299e-5
1.343,   4.315e-5
1.345,   4.346e-5
1.347,   4.374e-5
1.349,   4.416e-5
1.351,   4.456e-5
1.353,   4.498e-5
1.355,   4.534e-5
1.357,   4.580e-5
1.359,   4.635e-5
1.361,   4.692e-5
1.363,   4.760e-5
1.365,   4.833e-5
1.367,   4.912e-5
1.369,   4.998e-5
1.371,   5.095e-5
1.373,   5.205e-5
1.375,   5.324e-5
1.377,   5.453e-5
1.379,   5.604e-5
1.381,   5.766e-5
1.383,   5.942e-5
1.385,   6.151e-5
1.387,   6.380e-5
1.389,   6.648e-5
1.391,   6.928e-5
1.393,   7.233e-5
1.395,   7.600e-5
1.397,   8.008e-5
1.399,   8.455e-5
1.401,   8.945e-5
1.403,   9.488e-5
1.405,   1.011e-4
1.407,   1.079e-4
1.409,   1.155e-4
1.411,   1.240e-4
1.413,   1.333e-4
1.415,   1.436e-4
1.417,   1.551e-4
1.419,   1.677e-4
1.421,   1.816e-4
1.423,   1.967e-4
1.425,   2.132e-4
1.427,   2.316e-4
1.429,   2.516e-4
1.431,   2.735e-4
1.433,   2.974e-4
1.435,   3.234e-4
1.437,   3.518e-4
1.439,   3.824e-4
1.441,   4.159e-4
1.443,   4.525e-4
1.445,   4.920e-4
1.447,   5.343e-4
1.449,   5.805e-4
1.451,   6.301e-4
1.453,   6.836e-4
1.455,   7.409e-4
1.457,   8.026e-4
1.459,   8.687e-4
1.461,   9.404e-4
1.463,   1.017e-3
1.465,   1.099e-3
1.467,   1.186e-3
1.469,   1.280e-3
1.471,   1.379e-3
1.473,   1.485e-3
1.475,   1.597e-3
1.477,   1.717e-3
1.479,   1.846e-3
1.481,   1.978e-3
1.483,   2.120e-3
1.485,   2.269e-3
1.487,   2.424e-3
1.489,   2.588e-3
1.491,   2.760e-3
1.493,   2.941e-3
1.495,   3.128e-3
1.497,   3.326e-3
1.499,   3.525e-3
1.501,   3.735e-3
1.503,   3.962e-3
1.505,   4.189e-3
1.507,   4.416e-3
1.509,   4.644e-3
1.511,   4.878e-3
1.513,   5.119e-3
1.515,   5.380e-3
1.517,   5.641e-3
1.519,   5.885e-3
1.521,   6.109e-3
1.523,   6.408e-3
1.525,   6.672e-3
1.527,   6.933e-3
1.529,   7.251e-3
1.531,   9.322e-3
1.533,   1.006e-2
1.535,   1.006e-2
1.537,   1.006e-2
1.539,   1.006e-2
1.541,   1.006e-2
1.543,   1.006e-2
1.545,   1.006e-2
1.547,   1.006e-2
1.549,   1.006e-2
1.551,   1.006e-2
1.553,   1.006e-2
1.555,   1.006e-2
1.557,   1.006e-2
1.559,   1.006e-2
1.561,   1.006e-2
1.563,   1.006e-2
1.565,   1.006e-2
1.567,   1.006e-2
1.569,   1.006e-2
1.571,   1.006e-2
1.573,   1.006e-2
1.575,   1.006e-2
1.577,   1.006e-2
1.579,   1.006e-2
1.581,   1.006e-2
1.583,   1.006e-2
1.585,   1.006e-2
1.587,   1.006e-2
1.589,   1.006e-2
1.591,   1.006e-2
1.593,   1.006e-2
1.595,   1.006e-2
1.597,   1.006e-2
1.599,   1.006e-2
1.601,   1.006e-2
1.603,   1.006e-2
1.605,   1.006e-2
1.607,   1.006e-2
1.609,   1.006e-2
1.611,   1.006e-2
1.613,   1.006e-2
1.615,   1.006e-2
1.617,   1.006e-2
1.619,   1.006e-2
1.621,   1.006e-2
1.623,   1.006e-2
1.625,   1.006e-2
1.627,   1.006e-2
1.629,   1.006e-2
1.631,   1.006e-2
1.633,   1.006e-2
1.635,   1.006e-2
1.637,   1.006e-2
1.639,   1.006e-2
1.641,   1.006e-2
1.643,   1.006e-2
1.645,   1.006e-2
1.647,   1.006e-2
1.649,   1.006e-2
1.651,   1.006e-2
1.653,   1.006e-2
1.655,   1.006e-2
1.657,   1.006e-2
1.659,   1.006e-2
1.661,   1.006e-2
1.663,   1.006e-2
1.665,   1.006e-2
1.667,   1.006e-2
1.669,   1.006e-2
1.671,   1.006e-2
1.673,   1.006e-2
1.675,   1.006e-2
1.677,   1.006e-2
1.679,   1.006e-2
1.681,   1.006e-2
1.683,   1.006e-2
1.685,   1.006e-2
1.687,   1.006e-2
1.689,   1.006e-2
1.691,   1.006e-2
1.693,   1.006e-2
1.695,   1.006e-2
1.697,   1.006e-2
1.698,   1.006e-2