File: Experimental Records, Raw Data, and Supplementary Notes and Figures/batch2/final400/B2_BEST_400#16_High_Quality-253mV.txt
Jan. 14, 2023   15:23:47
Linear Sweep Voltammetry
File: d:\current work\al_oer\electrochemical test data\batch 2\400\B2_BEST_400#16_High_Quality-253mV.txt
Data Source:  Experiment
Instrument Model:  CHI660E
Header:
Note:

Init E (V) = 1.099

Final E (V) = 1.632

Scan Rate (V/s) = 0.010
Sample Interval (V) = 0.001
Quiet Time (sec) = 2
Sensitivity (A/V) = 0.001
Comp R (ohm) = 6.4

Results:

Channel 1:
Ep = 1.349V
ip = 9.996e-3A
Ah = 7.654e-2C

Potential/V, Current/A
1.099,   1.821e-4
1.101,   1.646e-4
1.103,   1.473e-4
1.105,   1.337e-4
1.107,   1.225e-4
1.109,   1.135e-4
1.111,   1.059e-4
1.113,   9.956e-5
1.115,   9.421e-5
1.117,   8.964e-5
1.119,   8.569e-5
1.121,   8.212e-5
1.123,   7.903e-5
1.125,   7.622e-5
1.127,   7.368e-5
1.129,   7.146e-5
1.131,   6.946e-5
1.133,   6.769e-5
1.135,   6.602e-5
1.137,   6.448e-5
1.139,   6.308e-5
1.141,   6.189e-5
1.143,   6.071e-5
1.145,   5.958e-5
1.147,   5.857e-5
1.149,   5.775e-5
1.151,   5.689e-5
1.153,   5.616e-5
1.155,   5.541e-5
1.157,   5.468e-5
1.159,   5.410e-5
1.161,   5.350e-5
1.163,   5.296e-5
1.165,   5.249e-5
1.167,   5.202e-5
1.169,   5.158e-5
1.171,   5.129e-5
1.173,   5.094e-5
1.175,   5.054e-5
1.177,   5.021e-5
1.179,   4.992e-5
1.181,   4.968e-5
1.183,   4.950e-5
1.185,   4.922e-5
1.187,   4.903e-5
1.189,   4.887e-5
1.191,   4.873e-5
1.193,   4.852e-5
1.195,   4.840e-5
1.197,   4.835e-5
1.199,   4.821e-5
1.201,   4.806e-5
1.203,   4.798e-5
1.205,   4.796e-5
1.207,   4.791e-5
1.209,   4.787e-5
1.211,   4.775e-5
1.213,   4.784e-5
1.215,   4.771e-5
1.217,   4.770e-5
1.219,   4.769e-5
1.221,   4.767e-5
1.223,   4.772e-5
1.225,   4.762e-5
1.227,   4.761e-5
1.229,   4.769e-5
1.231,   4.771e-5
1.233,   4.770e-5
1.235,   4.778e-5
1.237,   4.773e-5
1.239,   4.773e-5
1.241,   4.773e-5
1.243,   4.773e-5
1.245,   4.788e-5
1.247,   4.785e-5
1.249,   4.784e-5
1.251,   4.782e-5
1.253,   4.795e-5
1.255,   4.793e-5
1.257,   4.794e-5
1.259,   4.797e-5
1.261,   4.808e-5
1.263,   4.802e-5
1.265,   4.800e-5
1.267,   4.810e-5
1.269,   4.815e-5
1.271,   4.812e-5
1.273,   4.815e-5
1.275,   4.818e-5
1.277,   4.827e-5
1.279,   4.824e-5
1.281,   4.825e-5
1.283,   4.831e-5
1.285,   4.841e-5
1.287,   4.849e-5
1.289,   4.842e-5
1.291,   4.847e-5
1.293,   4.859e-5
1.295,   4.860e-5
1.297,   4.863e-5
1.299,   4.869e-5
1.301,   4.878e-5
1.303,   4.881e-5
1.305,   4.890e-5
1.307,   4.895e-5
1.309,   4.902e-5
1.311,   4.919e-5
1.313,   4.920e-5
1.315,   4.933e-5
1.317,   4.953e-5
1.319,   4.964e-5
1.321,   4.978e-5
1.323,   4.986e-5
1.325,   5.017e-5
1.327,   5.021e-5
1.329,   5.042e-5
1.331,   5.058e-5
1.333,   5.085e-5
1.335,   5.105e-5
1.337,   5.124e-5
1.339,   5.147e-5
1.341,   5.193e-5
1.343,   5.225e-5
1.345,   5.254e-5
1.347,   5.295e-5
1.349,   5.345e-5
1.351,   5.401e-5
1.353,   5.438e-5
1.355,   5.496e-5
1.357,   5.566e-5
1.359,   5.630e-5
1.361,   5.703e-5
1.363,   5.785e-5
1.365,   5.873e-5
1.367,   5.972e-5
1.369,   6.082e-5
1.371,   6.188e-5
1.373,   6.329e-5
1.375,   6.474e-5
1.377,   6.625e-5
1.379,   6.787e-5
1.381,   6.982e-5
1.383,   7.192e-5
1.385,   7.413e-5
1.387,   7.674e-5
1.389,   7.957e-5
1.391,   8.254e-5
1.393,   8.582e-5
1.395,   8.952e-5
1.397,   9.364e-5
1.399,   9.808e-5
1.401,   1.031e-4
1.403,   1.084e-4
1.405,   1.145e-4
1.407,   1.213e-4
1.409,   1.286e-4
1.411,   1.368e-4
1.413,   1.457e-4
1.415,   1.556e-4
1.417,   1.664e-4
1.419,   1.781e-4
1.421,   1.911e-4
1.423,   2.052e-4
1.425,   2.206e-4
1.427,   2.375e-4
1.429,   2.558e-4
1.431,   2.760e-4
1.433,   2.975e-4
1.435,   3.211e-4
1.437,   3.466e-4
1.439,   3.741e-4
1.441,   4.040e-4
1.443,   4.366e-4
1.445,   4.717e-4
1.447,   5.098e-4
1.449,   5.507e-4
1.451,   5.942e-4
1.453,   6.424e-4
1.455,   6.931e-4
1.457,   7.475e-4
1.459,   8.061e-4
1.461,   8.682e-4
1.463,   9.347e-4
1.465,   1.006e-3
1.467,   1.081e-3
1.469,   1.162e-3
1.471,   1.247e-3
1.473,   1.338e-3
1.475,   1.434e-3
1.477,   1.536e-3
1.479,   1.645e-3
1.481,   1.759e-3
1.483,   1.879e-3
1.485,   2.009e-3
1.487,   2.144e-3
1.489,   2.286e-3
1.491,   2.435e-3
1.493,   2.592e-3
1.495,   2.759e-3
1.497,   2.931e-3
1.499,   3.110e-3
1.501,   3.301e-3
1.503,   3.500e-3
1.505,   3.699e-3
1.507,   3.912e-3
1.509,   4.130e-3
1.511,   4.367e-3
1.513,   4.619e-3
1.515,   4.847e-3
1.517,   5.105e-3
1.519,   5.367e-3
1.521,   5.638e-3
1.523,   5.939e-3
1.525,   6.211e-3
1.527,   6.518e-3
1.529,   6.890e-3
1.531,   7.198e-3
1.533,   7.560e-3
1.535,   7.923e-3
1.537,   8.241e-3
1.539,   8.592e-3
1.541,   8.991e-3
1.543,   9.303e-3
1.545,   9.824e-3
1.547,   1.006e-2
1.549,   1.006e-2
1.551,   1.006e-2
1.553,   1.006e-2
1.555,   1.006e-2
1.557,   1.006e-2
1.559,   1.006e-2
1.561,   1.006e-2
1.563,   1.006e-2
1.565,   1.006e-2
1.567,   1.006e-2
1.569,   1.006e-2
1.571,   1.006e-2
1.573,   1.006e-2
1.575,   1.006e-2
1.577,   1.006e-2
1.579,   1.006e-2
1.581,   1.006e-2
1.583,   1.006e-2
1.585,   1.006e-2
1.587,   1.006e-2
1.589,   1.006e-2
1.591,   1.006e-2
1.593,   1.006e-2
1.595,   1.006e-2
1.597,   1.006e-2
1.599,   1.006e-2
1.601,   1.006e-2
1.603,   1.006e-2
1.605,   1.006e-2
1.607,   1.006e-2
1.609,   1.006e-2
1.611,   1.006e-2
1.613,   1.006e-2
1.615,   1.006e-2
1.617,   1.006e-2
1.619,   1.006e-2
1.621,   1.006e-2
1.623,   1.006e-2
1.625,   1.006e-2
1.627,   1.006e-2
1.629,   1.006e-2
1.631,   1.006e-2
1.632,   1.006e-2