File: Experimental Records, Raw Data, and Supplementary Notes and Figures/batch2/final400/B2_VARIANCE_400#5_High_Quality-225mV.txt
Jan. 14, 2023   14:18:13
Linear Sweep Voltammetry
File: d:\current work\al_oer\electrochemical test data\batch 2\400\B2_VARIANCE_400#5_High_Quality-225mV.txt
Data Source:  Experiment
Instrument Model:  CHI660E
Header:
Note:

Init E (V) = 1.099

Final E (V) = 1.598

Scan Rate (V/s) = 0.010
Sample Interval (V) = 0.001
Quiet Time (sec) = 2
Sensitivity (A/V) = 0.001
Comp R (ohm) = 6.3

Results:

Channel 1:

Potential/V, Current/A
1.099,   2.438e-4
1.101,   2.048e-4
1.103,   1.732e-4
1.105,   1.493e-4
1.107,   1.316e-4
1.109,   1.180e-4
1.111,   1.071e-4
1.113,   9.893e-5
1.115,   9.202e-5
1.117,   8.675e-5
1.119,   8.199e-5
1.121,   7.813e-5
1.123,   7.463e-5
1.125,   7.186e-5
1.127,   6.943e-5
1.129,   6.728e-5
1.131,   6.551e-5
1.133,   6.404e-5
1.135,   6.256e-5
1.137,   6.135e-5
1.139,   6.031e-5
1.141,   5.938e-5
1.143,   5.868e-5
1.145,   5.801e-5
1.147,   5.739e-5
1.149,   5.680e-5
1.151,   5.645e-5
1.153,   5.593e-5
1.155,   5.551e-5
1.157,   5.518e-5
1.159,   5.519e-5
1.161,   5.497e-5
1.163,   5.475e-5
1.165,   5.463e-5
1.167,   5.467e-5
1.169,   5.439e-5
1.171,   5.438e-5
1.173,   5.434e-5
1.175,   5.434e-5
1.177,   5.445e-5
1.179,   5.434e-5
1.181,   5.443e-5
1.183,   5.452e-5
1.185,   5.465e-5
1.187,   5.465e-5
1.189,   5.473e-5
1.191,   5.484e-5
1.193,   5.498e-5
1.195,   5.504e-5
1.197,   5.539e-5
1.199,   5.550e-5
1.201,   5.550e-5
1.203,   5.567e-5
1.205,   5.582e-5
1.207,   5.597e-5
1.209,   5.612e-5
1.211,   5.621e-5
1.213,   5.642e-5
1.215,   5.657e-5
1.217,   5.665e-5
1.219,   5.691e-5
1.221,   5.708e-5
1.223,   5.732e-5
1.225,   5.749e-5
1.227,   5.753e-5
1.229,   5.795e-5
1.231,   5.802e-5
1.233,   5.821e-5
1.235,   5.849e-5
1.237,   5.853e-5
1.239,   5.858e-5
1.241,   5.868e-5
1.243,   5.877e-5
1.245,   5.910e-5
1.247,   5.920e-5
1.249,   5.922e-5
1.251,   5.932e-5
1.253,   5.958e-5
1.255,   5.989e-5
1.257,   5.999e-5
1.259,   5.997e-5
1.261,   6.027e-5
1.263,   6.047e-5
1.265,   6.070e-5
1.267,   6.092e-5
1.269,   6.095e-5
1.271,   6.160e-5
1.273,   6.182e-5
1.275,   6.171e-5
1.277,   6.179e-5
1.279,   6.198e-5
1.281,   6.215e-5
1.283,   6.233e-5
1.285,   6.271e-5
1.287,   6.296e-5
1.289,   6.311e-5
1.291,   6.342e-5
1.293,   6.371e-5
1.295,   6.392e-5
1.297,   6.415e-5
1.299,   6.448e-5
1.301,   6.481e-5
1.303,   6.519e-5
1.305,   6.539e-5
1.307,   6.580e-5
1.309,   6.647e-5
1.311,   6.682e-5
1.313,   6.713e-5
1.315,   6.748e-5
1.317,   6.789e-5
1.319,   6.832e-5
1.321,   6.876e-5
1.323,   6.921e-5
1.325,   7.007e-5
1.327,   7.054e-5
1.329,   7.099e-5
1.331,   7.161e-5
1.333,   7.230e-5
1.335,   7.304e-5
1.337,   7.388e-5
1.339,   7.450e-5
1.341,   7.548e-5
1.343,   7.650e-5
1.345,   7.741e-5
1.347,   7.842e-5
1.349,   7.956e-5
1.351,   8.080e-5
1.353,   8.215e-5
1.355,   8.356e-5
1.357,   8.521e-5
1.359,   8.681e-5
1.361,   8.911e-5
1.363,   9.094e-5
1.365,   9.316e-5
1.367,   9.559e-5
1.369,   9.870e-5
1.371,   1.019e-4
1.373,   1.058e-4
1.375,   1.101e-4
1.377,   1.148e-4
1.379,   1.203e-4
1.381,   1.266e-4
1.383,   1.336e-4
1.385,   1.417e-4
1.387,   1.505e-4
1.389,   1.609e-4
1.391,   1.724e-4
1.393,   1.854e-4
1.395,   2.004e-4
1.397,   2.167e-4
1.399,   2.350e-4
1.401,   2.556e-4
1.403,   2.780e-4
1.405,   3.029e-4
1.407,   3.305e-4
1.409,   3.598e-4
1.411,   3.922e-4
1.413,   4.275e-4
1.415,   4.652e-4
1.417,   5.057e-4
1.419,   5.493e-4
1.421,   5.959e-4
1.423,   6.452e-4
1.425,   6.977e-4
1.427,   7.539e-4
1.429,   8.121e-4
1.431,   8.795e-4
1.433,   9.540e-4
1.435,   1.021e-3
1.437,   1.100e-3
1.439,   1.177e-3
1.441,   1.262e-3
1.443,   1.345e-3
1.445,   1.435e-3
1.447,   1.530e-3
1.449,   1.625e-3
1.451,   1.725e-3
1.453,   1.828e-3
1.455,   1.933e-3
1.457,   2.041e-3
1.459,   2.151e-3
1.461,   2.267e-3
1.463,   2.386e-3
1.465,   2.506e-3
1.467,   2.618e-3
1.469,   2.742e-3
1.471,   2.875e-3
1.473,   2.996e-3
1.475,   3.121e-3
1.477,   3.248e-3
1.479,   3.379e-3
1.481,   3.517e-3
1.483,   3.672e-3
1.485,   3.824e-3
1.487,   3.968e-3
1.489,   4.121e-3
1.491,   4.263e-3
1.493,   4.397e-3
1.495,   4.545e-3
1.497,   4.662e-3
1.499,   4.798e-3
1.501,   4.935e-3
1.503,   5.037e-3
1.505,   5.158e-3
1.507,   5.287e-3
1.509,   5.416e-3
1.511,   5.518e-3
1.513,   5.621e-3
1.515,   5.735e-3
1.517,   5.859e-3
1.519,   5.959e-3
1.521,   6.055e-3
1.523,   6.153e-3
1.525,   6.265e-3
1.527,   6.424e-3
1.529,   6.505e-3
1.531,   6.597e-3
1.533,   6.675e-3
1.535,   6.773e-3
1.537,   6.839e-3
1.539,   6.919e-3
1.541,   7.010e-3
1.543,   7.105e-3
1.545,   7.179e-3
1.547,   7.249e-3
1.549,   7.334e-3
1.551,   7.416e-3
1.553,   7.496e-3
1.555,   7.571e-3
1.557,   7.623e-3
1.559,   7.685e-3
1.561,   7.752e-3
1.563,   7.827e-3
1.565,   7.859e-3
1.567,   7.946e-3
1.569,   7.959e-3
1.571,   8.058e-3
1.573,   8.101e-3
1.575,   8.182e-3
1.577,   8.275e-3
1.579,   8.407e-3
1.581,   8.443e-3
1.583,   8.493e-3
1.585,   8.532e-3
1.587,   8.576e-3
1.589,   8.661e-3
1.591,   8.680e-3
1.593,   8.712e-3
1.595,   8.732e-3
1.597,   8.764e-3
1.598,   8.747e-3