File: Experimental Records, Raw Data, and Supplementary Notes and Figures/batch2/final400/B2_VARIANCE_400#2_High_Quality-205mV.txt
Jan. 14, 2023   13:42:28
Linear Sweep Voltammetry
File: d:\current work\al_oer\electrochemical test data\batch 2\400\B2_VARIANCE_400#2_High_Quality-205mV.txt
Data Source:  Experiment
Instrument Model:  CHI660E
Header:
Note:

Init E (V) = 1.099

Final E (V) = 1.798

Scan Rate (V/s) = 0.010
Sample Interval (V) = 0.001
Quiet Time (sec) = 2
Sensitivity (A/V) = 0.001
Comp R (ohm) = 5.8

Results:

Channel 1:
Ep = 1.274V
ip = 9.988e-3A
Ah = 4.472e-2C

Potential/V, Current/A
1.099,   2.297e-4
1.102,   1.837e-4
1.105,   1.472e-4
1.108,   1.235e-4
1.111,   1.074e-4
1.114,   9.612e-5
1.117,   8.784e-5
1.120,   8.187e-5
1.123,   7.689e-5
1.126,   7.326e-5
1.129,   7.037e-5
1.132,   6.817e-5
1.135,   6.638e-5
1.138,   6.489e-5
1.141,   6.381e-5
1.144,   6.268e-5
1.147,   6.192e-5
1.150,   6.127e-5
1.153,   6.081e-5
1.156,   6.032e-5
1.159,   6.009e-5
1.162,   5.980e-5
1.165,   5.967e-5
1.168,   5.937e-5
1.171,   5.935e-5
1.174,   5.912e-5
1.177,   5.912e-5
1.180,   5.910e-5
1.183,   5.915e-5
1.186,   5.919e-5
1.189,   5.911e-5
1.192,   5.916e-5
1.195,   5.909e-5
1.198,   5.927e-5
1.201,   5.937e-5
1.204,   5.955e-5
1.207,   5.966e-5
1.210,   6.001e-5
1.213,   5.995e-5
1.216,   6.009e-5
1.219,   6.012e-5
1.222,   6.024e-5
1.225,   6.049e-5
1.228,   6.059e-5
1.231,   6.076e-5
1.234,   6.091e-5
1.237,   6.108e-5
1.240,   6.106e-5
1.243,   6.108e-5
1.246,   6.119e-5
1.249,   6.140e-5
1.252,   6.158e-5
1.255,   6.194e-5
1.258,   6.197e-5
1.261,   6.217e-5
1.264,   6.224e-5
1.267,   6.232e-5
1.270,   6.241e-5
1.273,   6.269e-5
1.276,   6.280e-5
1.279,   6.319e-5
1.282,   6.337e-5
1.285,   6.345e-5
1.288,   6.345e-5
1.291,   6.356e-5
1.294,   6.375e-5
1.297,   6.399e-5
1.300,   6.429e-5
1.303,   6.462e-5
1.306,   6.490e-5
1.309,   6.510e-5
1.312,   6.546e-5
1.315,   6.546e-5
1.318,   6.586e-5
1.321,   6.613e-5
1.324,   6.688e-5
1.327,   6.709e-5
1.330,   6.753e-5
1.333,   6.812e-5
1.336,   6.856e-5
1.339,   6.904e-5
1.342,   6.974e-5
1.345,   7.056e-5
1.348,   7.164e-5
1.351,   7.283e-5
1.354,   7.417e-5
1.357,   7.570e-5
1.360,   7.749e-5
1.363,   7.976e-5
1.366,   8.229e-5
1.369,   8.585e-5
1.372,   9.009e-5
1.375,   9.561e-5
1.378,   1.024e-4
1.381,   1.108e-4
1.384,   1.214e-4
1.387,   1.348e-4
1.390,   1.518e-4
1.393,   1.731e-4
1.396,   1.998e-4
1.399,   2.331e-4
1.402,   2.742e-4
1.405,   3.243e-4
1.408,   3.856e-4
1.411,   4.601e-4
1.414,   5.498e-4
1.417,   6.563e-4
1.420,   7.831e-4
1.423,   9.324e-4
1.426,   1.107e-3
1.429,   1.311e-3
1.432,   1.549e-3
1.435,   1.827e-3
1.438,   2.151e-3
1.441,   2.519e-3
1.444,   2.945e-3
1.447,   3.425e-3
1.450,   3.982e-3
1.453,   4.621e-3
1.456,   5.332e-3
1.459,   6.150e-3
1.462,   7.038e-3
1.465,   8.029e-3
1.468,   9.050e-3
1.471,   1.004e-2
1.474,   1.006e-2
1.477,   1.006e-2
1.480,   1.006e-2
1.483,   1.006e-2
1.486,   1.006e-2
1.489,   1.006e-2
1.492,   1.006e-2
1.495,   1.006e-2
1.498,   1.006e-2
1.501,   1.006e-2
1.504,   1.006e-2
1.507,   1.006e-2
1.510,   1.006e-2
1.513,   1.006e-2
1.516,   1.006e-2
1.519,   1.006e-2
1.522,   1.006e-2
1.525,   1.006e-2
1.528,   1.006e-2
1.531,   1.006e-2
1.534,   1.006e-2
1.537,   1.006e-2
1.540,   1.006e-2
1.543,   1.006e-2
1.546,   1.006e-2
1.549,   1.006e-2
1.552,   1.006e-2
1.555,   1.006e-2
1.558,   1.006e-2
1.561,   1.006e-2
1.564,   1.006e-2
1.567,   1.006e-2
1.570,   1.006e-2
1.573,   1.006e-2
1.576,   1.006e-2
1.579,   1.006e-2
1.582,   1.006e-2
1.585,   1.006e-2
1.588,   1.006e-2
1.591,   1.006e-2
1.594,   1.006e-2
1.597,   1.006e-2
1.600,   1.006e-2
1.603,   1.006e-2
1.606,   1.006e-2
1.609,   1.006e-2
1.612,   1.006e-2
1.615,   1.006e-2
1.618,   1.006e-2
1.621,   1.006e-2
1.624,   1.006e-2
1.627,   1.006e-2
1.630,   1.006e-2
1.633,   1.006e-2
1.636,   1.006e-2
1.639,   1.006e-2
1.642,   1.006e-2
1.645,   1.006e-2
1.648,   1.006e-2
1.651,   1.006e-2
1.654,   1.006e-2
1.657,   1.006e-2
1.660,   1.006e-2
1.663,   1.006e-2
1.666,   1.006e-2
1.669,   1.006e-2
1.672,   1.006e-2
1.675,   1.006e-2
1.678,   1.006e-2
1.681,   1.006e-2
1.684,   1.006e-2
1.687,   1.006e-2
1.690,   1.006e-2
1.693,   1.006e-2
1.696,   1.006e-2
1.699,   1.006e-2
1.702,   1.006e-2
1.705,   1.006e-2
1.708,   1.006e-2
1.711,   1.006e-2
1.714,   1.006e-2
1.717,   1.006e-2
1.720,   1.006e-2
1.723,   1.006e-2
1.726,   1.006e-2
1.729,   1.006e-2
1.732,   1.006e-2
1.735,   1.006e-2
1.738,   1.006e-2
1.741,   1.006e-2
1.744,   1.006e-2
1.747,   1.006e-2
1.750,   1.006e-2
1.753,   1.006e-2
1.756,   1.006e-2
1.759,   1.006e-2
1.762,   1.006e-2
1.765,   1.006e-2
1.768,   1.006e-2
1.771,   1.006e-2
1.774,   1.006e-2
1.777,   1.006e-2
1.780,   1.006e-2
1.783,   1.006e-2
1.786,   1.006e-2
1.789,   1.006e-2
1.792,   1.006e-2
1.795,   1.006e-2
1.798,   1.006e-2