File: Experimental Records, Raw Data, and Supplementary Notes and Figures/batch2/final400/B2_VARIANCE_400#1_Full-262mV.txt
Jan. 13, 2023   14:45:23
Linear Sweep Voltammetry
File: d:\current work\al_oer\electrochemical test data\batch 2\400\B2_VARIANCE_400#1_Full-262mV.txt
Data Source:  Experiment
Instrument Model:  CHI660E
Header:
Note:

Init E (V) = 1.099

Final E (V) = 1.580

Scan Rate (V/s) = 0.010
Sample Interval (V) = 0.001
Quiet Time (sec) = 2
Sensitivity (A/V) = 0.001
Comp R (ohm) = 6.0

Results:

Channel 1:

Potential/V, Current/A
1.099,   2.022e-4
1.101,   1.775e-4
1.103,   1.553e-4
1.105,   1.378e-4
1.107,   1.241e-4
1.109,   1.129e-4
1.111,   1.037e-4
1.113,   9.594e-5
1.115,   8.948e-5
1.117,   8.406e-5
1.119,   7.944e-5
1.121,   7.533e-5
1.123,   7.161e-5
1.125,   6.864e-5
1.127,   6.597e-5
1.129,   6.357e-5
1.131,   6.132e-5
1.133,   5.952e-5
1.135,   5.787e-5
1.137,   5.631e-5
1.139,   5.498e-5
1.141,   5.379e-5
1.143,   5.268e-5
1.145,   5.166e-5
1.147,   5.074e-5
1.149,   4.990e-5
1.151,   4.916e-5
1.153,   4.849e-5
1.155,   4.783e-5
1.157,   4.732e-5
1.159,   4.689e-5
1.161,   4.633e-5
1.163,   4.589e-5
1.165,   4.561e-5
1.167,   4.514e-5
1.169,   4.479e-5
1.171,   4.453e-5
1.173,   4.425e-5
1.175,   4.397e-5
1.177,   4.376e-5
1.179,   4.350e-5
1.181,   4.333e-5
1.183,   4.318e-5
1.185,   4.298e-5
1.187,   4.283e-5
1.189,   4.275e-5
1.191,   4.261e-5
1.193,   4.251e-5
1.195,   4.243e-5
1.197,   4.243e-5
1.199,   4.235e-5
1.201,   4.221e-5
1.203,   4.216e-5
1.205,   4.216e-5
1.207,   4.214e-5
1.209,   4.211e-5
1.211,   4.202e-5
1.213,   4.206e-5
1.215,   4.206e-5
1.217,   4.202e-5
1.219,   4.204e-5
1.221,   4.198e-5
1.223,   4.205e-5
1.225,   4.200e-5
1.227,   4.200e-5
1.229,   4.205e-5
1.231,   4.208e-5
1.233,   4.201e-5
1.235,   4.208e-5
1.237,   4.208e-5
1.239,   4.209e-5
1.241,   4.209e-5
1.243,   4.209e-5
1.245,   4.218e-5
1.247,   4.219e-5
1.249,   4.219e-5
1.251,   4.214e-5
1.253,   4.220e-5
1.255,   4.223e-5
1.257,   4.224e-5
1.259,   4.224e-5
1.261,   4.231e-5
1.263,   4.232e-5
1.265,   4.226e-5
1.267,   4.231e-5
1.269,   4.239e-5
1.271,   4.238e-5
1.273,   4.249e-5
1.275,   4.247e-5
1.277,   4.249e-5
1.279,   4.253e-5
1.281,   4.251e-5
1.283,   4.251e-5
1.285,   4.253e-5
1.287,   4.262e-5
1.289,   4.261e-5
1.291,   4.258e-5
1.293,   4.267e-5
1.295,   4.272e-5
1.297,   4.276e-5
1.299,   4.281e-5
1.301,   4.289e-5
1.303,   4.292e-5
1.305,   4.290e-5
1.307,   4.287e-5
1.309,   4.302e-5
1.311,   4.310e-5
1.313,   4.312e-5
1.315,   4.320e-5
1.317,   4.329e-5
1.319,   4.337e-5
1.321,   4.343e-5
1.323,   4.342e-5
1.325,   4.369e-5
1.327,   4.374e-5
1.329,   4.378e-5
1.331,   4.386e-5
1.333,   4.399e-5
1.335,   4.414e-5
1.337,   4.426e-5
1.339,   4.437e-5
1.341,   4.447e-5
1.343,   4.470e-5
1.345,   4.487e-5
1.347,   4.506e-5
1.349,   4.532e-5
1.351,   4.563e-5
1.353,   4.587e-5
1.355,   4.617e-5
1.357,   4.656e-5
1.359,   4.694e-5
1.361,   4.734e-5
1.363,   4.787e-5
1.365,   4.841e-5
1.367,   4.901e-5
1.369,   4.974e-5
1.371,   5.046e-5
1.373,   5.140e-5
1.375,   5.238e-5
1.377,   5.356e-5
1.379,   5.478e-5
1.381,   5.623e-5
1.383,   5.781e-5
1.385,   5.968e-5
1.387,   6.179e-5
1.389,   6.418e-5
1.391,   6.670e-5
1.393,   6.966e-5
1.395,   7.307e-5
1.397,   7.696e-5
1.399,   8.112e-5
1.401,   8.562e-5
1.403,   9.081e-5
1.405,   9.648e-5
1.407,   1.028e-4
1.409,   1.098e-4
1.411,   1.175e-4
1.413,   1.260e-4
1.415,   1.354e-4
1.417,   1.455e-4
1.419,   1.567e-4
1.421,   1.692e-4
1.423,   1.825e-4
1.425,   1.968e-4
1.427,   2.125e-4
1.429,   2.294e-4
1.431,   2.479e-4
1.433,   2.677e-4
1.435,   2.891e-4
1.437,   3.119e-4
1.439,   3.366e-4
1.441,   3.629e-4
1.443,   3.912e-4
1.445,   4.218e-4
1.447,   4.544e-4
1.449,   4.890e-4
1.451,   5.263e-4
1.453,   5.667e-4
1.455,   6.081e-4
1.457,   6.523e-4
1.459,   6.983e-4
1.461,   7.490e-4
1.463,   8.011e-4
1.465,   8.556e-4
1.467,   9.121e-4
1.469,   9.720e-4
1.471,   1.036e-3
1.473,   1.102e-3
1.475,   1.173e-3
1.477,   1.245e-3
1.479,   1.321e-3
1.481,   1.399e-3
1.483,   1.484e-3
1.485,   1.570e-3
1.487,   1.662e-3
1.489,   1.757e-3
1.491,   1.852e-3
1.493,   1.957e-3
1.495,   2.060e-3
1.497,   2.168e-3
1.499,   2.275e-3
1.501,   2.389e-3
1.503,   2.508e-3
1.505,   2.630e-3
1.507,   2.756e-3
1.509,   2.885e-3
1.511,   3.019e-3
1.513,   3.159e-3
1.515,   3.296e-3
1.517,   3.440e-3
1.519,   3.586e-3
1.521,   3.741e-3
1.523,   3.901e-3
1.525,   4.065e-3
1.527,   4.233e-3
1.529,   4.405e-3
1.531,   4.582e-3
1.533,   4.760e-3
1.535,   4.948e-3
1.537,   5.136e-3
1.539,   5.334e-3
1.541,   5.534e-3
1.543,   5.736e-3
1.545,   5.939e-3
1.547,   6.154e-3
1.549,   6.374e-3
1.551,   6.598e-3
1.553,   6.827e-3
1.555,   7.062e-3
1.557,   7.284e-3
1.559,   7.531e-3
1.561,   7.775e-3
1.563,   8.037e-3
1.565,   8.302e-3
1.567,   8.578e-3
1.569,   8.833e-3
1.571,   9.244e-3
1.573,   9.528e-3
1.575,   9.778e-3
1.577,   1.003e-2
1.579,   1.006e-2
1.580,   1.006e-2