File: Experimental Records, Raw Data, and Supplementary Notes and Figures/batch5/final500/B5_BEST_500_#1_High_Quality(#29)-217mV.txt
June 9, 2023   15:28:53
Linear Sweep Voltammetry
File: d:\current work\al_oer\electrochemical test data\batch 5\500\B5_BEST_500_#1_High_Quality(#29)-217mV.txt
Data Source:  Experiment
Instrument Model:  CHI660E
Header:
Note:

Init E (V) = 0.888

Final E (V) = 1.505

Scan Rate (V/s) = 0.010
Sample Interval (V) = 0.001
Quiet Time (sec) = 2
Sensitivity (A/V) = 0.001
Comp R (ohm) = 4.0

Results:

Channel 1:

Potential/V, Current/A
0.888,   1.436e-4
0.891,   1.597e-4
0.894,   1.585e-4
0.897,   1.536e-4
0.900,   1.532e-4
0.903,   1.504e-4
0.906,   1.467e-4
0.909,   1.468e-4
0.912,   1.437e-4
0.915,   1.414e-4
0.918,   1.411e-4
0.921,   1.385e-4
0.924,   1.365e-4
0.927,   1.360e-4
0.930,   1.343e-4
0.933,   1.335e-4
0.936,   1.315e-4
0.939,   1.313e-4
0.942,   1.302e-4
0.945,   1.275e-4
0.948,   1.278e-4
0.951,   1.270e-4
0.954,   1.247e-4
0.957,   1.255e-4
0.960,   1.243e-4
0.963,   1.221e-4
0.966,   1.231e-4
0.969,   1.213e-4
0.972,   1.207e-4
0.975,   1.204e-4
0.978,   1.194e-4
0.981,   1.195e-4
0.984,   1.178e-4
0.987,   1.182e-4
0.990,   1.175e-4
0.993,   1.163e-4
0.996,   1.169e-4
0.999,   1.167e-4
1.002,   1.149e-4
1.005,   1.162e-4
1.008,   1.153e-4
1.011,   1.146e-4
1.014,   1.151e-4
1.017,   1.141e-4
1.020,   1.141e-4
1.023,   1.137e-4
1.026,   1.133e-4
1.029,   1.141e-4
1.032,   1.126e-4
1.035,   1.132e-4
1.038,   1.132e-4
1.041,   1.115e-4
1.044,   1.134e-4
1.047,   1.125e-4
1.050,   1.119e-4
1.053,   1.133e-4
1.056,   1.132e-4
1.059,   1.125e-4
1.062,   1.137e-4
1.065,   1.131e-4
1.068,   1.134e-4
1.071,   1.131e-4
1.074,   1.132e-4
1.077,   1.135e-4
1.080,   1.130e-4
1.083,   1.144e-4
1.086,   1.150e-4
1.089,   1.132e-4
1.092,   1.146e-4
1.095,   1.164e-4
1.098,   1.146e-4
1.101,   1.167e-4
1.104,   1.165e-4
1.107,   1.170e-4
1.110,   1.179e-4
1.113,   1.173e-4
1.116,   1.177e-4
1.119,   1.181e-4
1.122,   1.181e-4
1.125,   1.201e-4
1.128,   1.184e-4
1.131,   1.199e-4
1.134,   1.217e-4
1.137,   1.198e-4
1.140,   1.226e-4
1.143,   1.226e-4
1.146,   1.218e-4
1.149,   1.238e-4
1.152,   1.242e-4
1.155,   1.244e-4
1.158,   1.267e-4
1.161,   1.256e-4
1.164,   1.274e-4
1.167,   1.269e-4
1.170,   1.279e-4
1.173,   1.298e-4
1.176,   1.280e-4
1.179,   1.304e-4
1.182,   1.307e-4
1.185,   1.290e-4
1.188,   1.341e-4
1.191,   1.348e-4
1.194,   1.327e-4
1.197,   1.365e-4
1.200,   1.362e-4
1.203,   1.369e-4
1.206,   1.390e-4
1.209,   1.387e-4
1.212,   1.409e-4
1.215,   1.405e-4
1.218,   1.424e-4
1.221,   1.442e-4
1.224,   1.435e-4
1.227,   1.458e-4
1.230,   1.469e-4
1.233,   1.451e-4
1.236,   1.498e-4
1.239,   1.502e-4
1.242,   1.490e-4
1.245,   1.536e-4
1.248,   1.532e-4
1.251,   1.545e-4
1.254,   1.574e-4
1.257,   1.572e-4
1.260,   1.588e-4
1.263,   1.594e-4
1.266,   1.599e-4
1.269,   1.636e-4
1.272,   1.612e-4
1.275,   1.651e-4
1.278,   1.674e-4
1.281,   1.649e-4
1.284,   1.708e-4
1.287,   1.711e-4
1.290,   1.704e-4
1.293,   1.757e-4
1.296,   1.747e-4
1.299,   1.768e-4
1.302,   1.806e-4
1.305,   1.804e-4
1.308,   1.833e-4
1.311,   1.832e-4
1.314,   1.853e-4
1.317,   1.898e-4
1.320,   1.865e-4
1.323,   1.942e-4
1.326,   1.959e-4
1.329,   1.933e-4
1.332,   2.015e-4
1.335,   2.020e-4
1.338,   2.023e-4
1.341,   2.090e-4
1.344,   2.098e-4
1.347,   2.133e-4
1.350,   2.181e-4
1.353,   2.194e-4
1.356,   2.259e-4
1.359,   2.276e-4
1.362,   2.341e-4
1.365,   2.405e-4
1.368,   2.400e-4
1.371,   2.526e-4
1.374,   2.578e-4
1.377,   2.601e-4
1.380,   2.763e-4
1.383,   2.820e-4
1.386,   2.890e-4
1.389,   3.072e-4
1.392,   3.156e-4
1.395,   3.312e-4
1.398,   3.517e-4
1.401,   3.675e-4
1.404,   3.954e-4
1.407,   4.149e-4
1.410,   4.508e-4
1.413,   4.907e-4
1.416,   5.206e-4
1.419,   5.888e-4
1.422,   6.482e-4
1.425,   7.044e-4
1.428,   8.201e-4
1.431,   9.097e-4
1.434,   1.019e-3
1.437,   1.194e-3
1.440,   1.341e-3
1.443,   1.542e-3
1.446,   1.793e-3
1.449,   2.039e-3
1.452,   2.374e-3
1.455,   2.718e-3
1.458,   3.135e-3
1.461,   3.635e-3
1.464,   4.089e-3
1.467,   4.755e-3
1.470,   5.400e-3
1.473,   5.993e-3
1.476,   6.915e-3
1.479,   7.663e-3
1.482,   8.351e-3
1.485,   9.346e-3
1.488,   9.852e-3
1.491,   9.946e-3
1.494,   1.006e-2
1.497,   1.007e-2
1.500,   1.007e-2
1.503,   1.007e-2
1.505,   1.007e-2