File: Experimental Records, Raw Data, and Supplementary Notes and Figures/batch5/final500/B5_BEST_500_#1_High_Quality(#19)-192mV.txt
June 9, 2023   16:21:05
Linear Sweep Voltammetry
File: d:\current work\al_oer\electrochemical test data\batch 5\500\B5_BEST_500_#1_High_Quality(#19)-192mV.txt
Data Source:  Experiment
Instrument Model:  CHI660E
Header:
Note:

Init E (V) = 0.894

Final E (V) = 1.492

Scan Rate (V/s) = 0.010
Sample Interval (V) = 0.001
Quiet Time (sec) = 2
Sensitivity (A/V) = 0.001
Comp R (ohm) = 4.0

Results:

Channel 1:

Potential/V, Current/A
0.894,   1.006e-4
0.896,   1.490e-4
0.898,   1.514e-4
0.900,   1.616e-4
0.902,   1.682e-4
0.904,   1.708e-4
0.906,   1.704e-4
0.908,   1.646e-4
0.910,   1.602e-4
0.912,   1.587e-4
0.914,   1.614e-4
0.916,   1.663e-4
0.918,   1.724e-4
0.920,   1.743e-4
0.922,   1.719e-4
0.924,   1.642e-4
0.926,   1.629e-4
0.928,   1.618e-4
0.930,   1.653e-4
0.932,   1.729e-4
0.934,   1.778e-4
0.936,   1.769e-4
0.938,   1.719e-4
0.940,   1.677e-4
0.942,   1.657e-4
0.944,   1.657e-4
0.946,   1.698e-4
0.948,   1.780e-4
0.950,   1.818e-4
0.952,   1.804e-4
0.954,   1.759e-4
0.956,   1.679e-4
0.958,   1.693e-4
0.960,   1.702e-4
0.962,   1.759e-4
0.964,   1.851e-4
0.966,   1.884e-4
0.968,   1.843e-4
0.970,   1.774e-4
0.972,   1.750e-4
0.974,   1.735e-4
0.976,   1.765e-4
0.978,   1.838e-4
0.980,   1.923e-4
0.982,   1.946e-4
0.984,   1.895e-4
0.986,   1.829e-4
0.988,   1.795e-4
0.990,   1.795e-4
0.992,   1.811e-4
0.994,   1.925e-4
0.996,   1.996e-4
0.998,   1.986e-4
1.000,   1.922e-4
1.002,   1.882e-4
1.004,   1.856e-4
1.006,   1.863e-4
1.008,   1.934e-4
1.010,   2.014e-4
1.012,   2.075e-4
1.014,   2.025e-4
1.016,   1.973e-4
1.018,   1.898e-4
1.020,   1.906e-4
1.022,   1.934e-4
1.024,   2.027e-4
1.026,   2.114e-4
1.028,   2.150e-4
1.030,   2.103e-4
1.032,   2.019e-4
1.034,   1.975e-4
1.036,   1.975e-4
1.038,   2.020e-4
1.040,   2.116e-4
1.042,   2.197e-4
1.044,   2.222e-4
1.046,   2.143e-4
1.048,   2.058e-4
1.050,   2.055e-4
1.052,   2.041e-4
1.054,   2.109e-4
1.056,   2.217e-4
1.058,   2.281e-4
1.060,   2.287e-4
1.062,   2.205e-4
1.064,   2.126e-4
1.066,   2.109e-4
1.068,   2.130e-4
1.070,   2.211e-4
1.072,   2.305e-4
1.074,   2.361e-4
1.076,   2.349e-4
1.078,   2.264e-4
1.080,   2.185e-4
1.082,   2.179e-4
1.084,   2.232e-4
1.086,   2.336e-4
1.088,   2.427e-4
1.090,   2.447e-4
1.092,   2.394e-4
1.094,   2.303e-4
1.096,   2.244e-4
1.098,   2.244e-4
1.100,   2.336e-4
1.102,   2.449e-4
1.104,   2.541e-4
1.106,   2.538e-4
1.108,   2.464e-4
1.110,   2.374e-4
1.112,   2.322e-4
1.114,   2.322e-4
1.116,   2.446e-4
1.118,   2.593e-4
1.120,   2.672e-4
1.122,   2.601e-4
1.124,   2.538e-4
1.126,   2.412e-4
1.128,   2.374e-4
1.130,   2.438e-4
1.132,   2.578e-4
1.134,   2.716e-4
1.136,   2.777e-4
1.138,   2.693e-4
1.140,   2.609e-4
1.142,   2.517e-4
1.144,   2.482e-4
1.146,   2.568e-4
1.148,   2.727e-4
1.150,   2.855e-4
1.152,   2.899e-4
1.154,   2.788e-4
1.156,   2.644e-4
1.158,   2.586e-4
1.160,   2.574e-4
1.162,   2.721e-4
1.164,   2.877e-4
1.166,   2.997e-4
1.168,   2.994e-4
1.170,   2.845e-4
1.172,   2.754e-4
1.174,   2.684e-4
1.176,   2.687e-4
1.178,   2.811e-4
1.180,   3.039e-4
1.182,   3.131e-4
1.184,   3.140e-4
1.186,   2.943e-4
1.188,   2.838e-4
1.190,   2.759e-4
1.192,   2.821e-4
1.194,   3.015e-4
1.196,   3.224e-4
1.198,   3.279e-4
1.200,   3.192e-4
1.202,   3.023e-4
1.204,   2.925e-4
1.206,   2.848e-4
1.208,   2.981e-4
1.210,   3.220e-4
1.212,   3.398e-4
1.214,   3.437e-4
1.216,   3.305e-4
1.218,   3.072e-4
1.220,   2.942e-4
1.222,   2.983e-4
1.224,   3.162e-4
1.226,   3.399e-4
1.228,   3.597e-4
1.230,   3.591e-4
1.232,   3.386e-4
1.234,   3.167e-4
1.236,   3.057e-4
1.238,   3.100e-4
1.240,   3.335e-4
1.242,   3.621e-4
1.244,   3.759e-4
1.246,   3.691e-4
1.248,   3.471e-4
1.250,   3.257e-4
1.252,   3.180e-4
1.254,   3.319e-4
1.256,   3.547e-4
1.258,   3.837e-4
1.260,   3.933e-4
1.262,   3.844e-4
1.264,   3.599e-4
1.266,   3.372e-4
1.268,   3.379e-4
1.270,   3.527e-4
1.272,   3.831e-4
1.274,   4.055e-4
1.276,   4.098e-4
1.278,   3.869e-4
1.280,   3.668e-4
1.282,   3.480e-4
1.284,   3.529e-4
1.286,   3.740e-4
1.288,   4.058e-4
1.290,   4.293e-4
1.292,   4.255e-4
1.294,   4.002e-4
1.296,   3.688e-4
1.298,   3.619e-4
1.300,   3.760e-4
1.302,   4.048e-4
1.304,   4.355e-4
1.306,   4.523e-4
1.308,   4.397e-4
1.310,   4.105e-4
1.312,   3.867e-4
1.314,   3.793e-4
1.316,   4.011e-4
1.318,   4.360e-4
1.320,   4.656e-4
1.322,   4.753e-4
1.324,   4.592e-4
1.326,   4.285e-4
1.328,   4.036e-4
1.330,   4.043e-4
1.332,   4.303e-4
1.334,   4.699e-4
1.336,   5.025e-4
1.338,   5.071e-4
1.340,   4.869e-4
1.342,   4.553e-4
1.344,   4.327e-4
1.346,   4.316e-4
1.348,   4.743e-4
1.350,   5.204e-4
1.352,   5.473e-4
1.354,   5.437e-4
1.356,   5.121e-4
1.358,   4.778e-4
1.360,   4.679e-4
1.362,   4.948e-4
1.364,   5.521e-4
1.366,   6.006e-4
1.368,   6.210e-4
1.370,   6.087e-4
1.372,   5.653e-4
1.374,   5.482e-4
1.376,   5.513e-4
1.378,   6.024e-4
1.380,   6.763e-4
1.382,   7.324e-4
1.384,   7.436e-4
1.386,   7.169e-4
1.388,   6.821e-4
1.390,   6.800e-4
1.392,   7.258e-4
1.394,   8.170e-4
1.396,   9.164e-4
1.398,   9.780e-4
1.400,   9.954e-4
1.402,   9.784e-4
1.404,   9.456e-4
1.406,   9.657e-4
1.408,   1.064e-3
1.410,   1.220e-3
1.412,   1.393e-3
1.414,   1.501e-3
1.416,   1.520e-3
1.418,   1.500e-3
1.420,   1.521e-3
1.422,   1.639e-3
1.424,   1.901e-3
1.426,   2.239e-3
1.428,   2.560e-3
1.430,   2.754e-3
1.432,   2.851e-3
1.434,   2.965e-3
1.436,   3.244e-3
1.438,   3.766e-3
1.440,   4.446e-3
1.442,   5.096e-3
1.444,   5.498e-3
1.446,   5.588e-3
1.448,   5.514e-3
1.450,   5.614e-3
1.452,   6.043e-3
1.454,   6.776e-3
1.456,   7.599e-3
1.458,   8.106e-3
1.460,   8.403e-3
1.462,   8.606e-3
1.464,   8.829e-3
1.466,   9.376e-3
1.468,   9.815e-3
1.470,   1.007e-2
1.472,   1.007e-2
1.474,   1.007e-2
1.476,   1.007e-2
1.478,   1.007e-2
1.480,   1.007e-2
1.482,   1.007e-2
1.484,   1.007e-2
1.486,   1.007e-2
1.488,   1.007e-2
1.490,   1.007e-2
1.492,   1.007e-2