File: Experimental Records, Raw Data, and Supplementary Notes and Figures/batch5/final500/B5_BEST_500_#1_Full(#5)-214mV.txt
June 8, 2023   21:33:34
Linear Sweep Voltammetry
File: d:\current work\al_oer\electrochemical test data\batch 5\500\B5_BEST_500_#1_Full(#5)-214mV.txt
Data Source:  Experiment
Instrument Model:  CHI660E
Header:
Note:

Init E (V) = 0.900

Final E (V) = 1.517

Scan Rate (V/s) = 0.010
Sample Interval (V) = 0.001
Quiet Time (sec) = 2
Sensitivity (A/V) = 0.001
Comp R (ohm) = 4.0

Results:

Channel 1:

Potential/V, Current/A
0.900,   1.292e-4
0.903,   2.092e-4
0.906,   2.052e-4
0.909,   2.096e-4
0.912,   2.185e-4
0.915,   2.157e-4
0.918,   2.065e-4
0.921,   2.129e-4
0.924,   2.196e-4
0.927,   2.162e-4
0.930,   2.097e-4
0.933,   2.186e-4
0.936,   2.189e-4
0.939,   2.132e-4
0.942,   2.113e-4
0.945,   2.215e-4
0.948,   2.283e-4
0.951,   2.196e-4
0.954,   2.127e-4
0.957,   2.261e-4
0.960,   2.328e-4
0.963,   2.202e-4
0.966,   2.186e-4
0.969,   2.322e-4
0.972,   2.333e-4
0.975,   2.236e-4
0.978,   2.237e-4
0.981,   2.305e-4
0.984,   2.376e-4
0.987,   2.264e-4
0.990,   2.235e-4
0.993,   2.427e-4
0.996,   2.410e-4
0.999,   2.289e-4
1.002,   2.311e-4
1.005,   2.439e-4
1.008,   2.461e-4
1.011,   2.340e-4
1.014,   2.326e-4
1.017,   2.484e-4
1.020,   2.459e-4
1.023,   2.303e-4
1.026,   2.354e-4
1.029,   2.560e-4
1.032,   2.479e-4
1.035,   2.351e-4
1.038,   2.422e-4
1.041,   2.552e-4
1.044,   2.510e-4
1.047,   2.390e-4
1.050,   2.443e-4
1.053,   2.607e-4
1.056,   2.526e-4
1.059,   2.417e-4
1.062,   2.479e-4
1.065,   2.647e-4
1.068,   2.599e-4
1.071,   2.460e-4
1.074,   2.524e-4
1.077,   2.677e-4
1.080,   2.603e-4
1.083,   2.475e-4
1.086,   2.588e-4
1.089,   2.713e-4
1.092,   2.651e-4
1.095,   2.531e-4
1.098,   2.667e-4
1.101,   2.745e-4
1.104,   2.665e-4
1.107,   2.584e-4
1.110,   2.719e-4
1.113,   2.817e-4
1.116,   2.716e-4
1.119,   2.627e-4
1.122,   2.821e-4
1.125,   2.860e-4
1.128,   2.712e-4
1.131,   2.685e-4
1.134,   2.871e-4
1.137,   2.956e-4
1.140,   2.755e-4
1.143,   2.754e-4
1.146,   2.963e-4
1.149,   2.964e-4
1.152,   2.847e-4
1.155,   2.888e-4
1.158,   3.054e-4
1.161,   2.998e-4
1.164,   2.965e-4
1.167,   3.001e-4
1.170,   3.114e-4
1.173,   3.040e-4
1.176,   2.974e-4
1.179,   3.063e-4
1.182,   3.216e-4
1.185,   3.156e-4
1.188,   3.102e-4
1.191,   3.160e-4
1.194,   3.359e-4
1.197,   3.310e-4
1.200,   3.069e-4
1.203,   3.262e-4
1.206,   3.486e-4
1.209,   3.359e-4
1.212,   3.168e-4
1.215,   3.344e-4
1.218,   3.603e-4
1.221,   3.452e-4
1.224,   3.255e-4
1.227,   3.489e-4
1.230,   3.640e-4
1.233,   3.486e-4
1.236,   3.419e-4
1.239,   3.682e-4
1.242,   3.815e-4
1.245,   3.646e-4
1.248,   3.511e-4
1.251,   3.837e-4
1.254,   3.970e-4
1.257,   3.731e-4
1.260,   3.627e-4
1.263,   3.968e-4
1.266,   4.043e-4
1.269,   3.842e-4
1.272,   3.618e-4
1.275,   4.005e-4
1.278,   4.278e-4
1.281,   4.008e-4
1.284,   3.755e-4
1.287,   4.181e-4
1.290,   4.529e-4
1.293,   4.141e-4
1.296,   3.729e-4
1.299,   4.364e-4
1.302,   4.590e-4
1.305,   4.114e-4
1.308,   3.862e-4
1.311,   4.517e-4
1.314,   4.757e-4
1.317,   4.173e-4
1.320,   3.970e-4
1.323,   4.717e-4
1.326,   4.755e-4
1.329,   4.166e-4
1.332,   4.245e-4
1.335,   4.923e-4
1.338,   4.960e-4
1.341,   4.389e-4
1.344,   4.326e-4
1.347,   5.030e-4
1.350,   5.129e-4
1.353,   4.471e-4
1.356,   4.602e-4
1.359,   5.366e-4
1.362,   5.352e-4
1.365,   4.573e-4
1.368,   4.870e-4
1.371,   5.630e-4
1.374,   5.583e-4
1.377,   4.835e-4
1.380,   5.113e-4
1.383,   6.083e-4
1.386,   6.019e-4
1.389,   5.135e-4
1.392,   5.449e-4
1.395,   6.548e-4
1.398,   6.589e-4
1.401,   5.634e-4
1.404,   6.105e-4
1.407,   7.358e-4
1.410,   7.607e-4
1.413,   6.540e-4
1.416,   7.148e-4
1.419,   9.047e-4
1.422,   9.325e-4
1.425,   8.121e-4
1.428,   9.472e-4
1.431,   1.224e-3
1.434,   1.302e-3
1.437,   1.192e-3
1.440,   1.433e-3
1.443,   1.825e-3
1.446,   2.040e-3
1.449,   2.085e-3
1.452,   2.498e-3
1.455,   3.187e-3
1.458,   3.646e-3
1.461,   3.784e-3
1.464,   4.776e-3
1.467,   6.024e-3
1.470,   6.533e-3
1.473,   7.176e-3
1.476,   8.391e-3
1.479,   9.761e-3
1.482,   1.007e-2
1.485,   1.007e-2
1.488,   1.007e-2
1.491,   1.007e-2
1.494,   1.007e-2
1.497,   1.007e-2
1.500,   1.007e-2
1.503,   1.007e-2
1.506,   1.007e-2
1.509,   1.007e-2
1.512,   1.007e-2
1.515,   1.007e-2
1.517,   1.007e-2