File: Experimental Records, Raw Data, and Supplementary Notes and Figures/batch5/final500/B5_BEST_500_#1_High_Quality(#18)-209mV.txt
June 9, 2023   16:28:52
Linear Sweep Voltammetry
File: d:\current work\al_oer\electrochemical test data\batch 5\500\B5_BEST_500_#1_High_Quality(#18)-209mV.txt
Data Source:  Experiment
Instrument Model:  CHI660E
Header:
Note:

Init E (V) = 0.880

Final E (V) = 1.494

Scan Rate (V/s) = 0.010
Sample Interval (V) = 0.001
Quiet Time (sec) = 2
Sensitivity (A/V) = 0.001
Comp R (ohm) = 6.0

Results:

Channel 1:

Potential/V, Current/A
0.880,   4.222e-4
0.883,   4.499e-4
0.886,   4.470e-4
0.889,   4.413e-4
0.892,   4.342e-4
0.895,   4.271e-4
0.898,   4.196e-4
0.901,   4.128e-4
0.904,   4.062e-4
0.907,   4.003e-4
0.910,   3.936e-4
0.913,   3.875e-4
0.916,   3.813e-4
0.919,   3.758e-4
0.922,   3.709e-4
0.925,   3.654e-4
0.928,   3.612e-4
0.931,   3.567e-4
0.934,   3.525e-4
0.937,   3.483e-4
0.940,   3.442e-4
0.943,   3.401e-4
0.946,   3.351e-4
0.949,   3.327e-4
0.952,   3.308e-4
0.955,   3.282e-4
0.958,   3.251e-4
0.961,   3.228e-4
0.964,   3.204e-4
0.967,   3.182e-4
0.970,   3.166e-4
0.973,   3.150e-4
0.976,   3.147e-4
0.979,   3.125e-4
0.982,   3.109e-4
0.985,   3.095e-4
0.988,   3.080e-4
0.991,   3.072e-4
0.994,   3.048e-4
0.997,   3.046e-4
1.000,   3.034e-4
1.003,   3.024e-4
1.006,   3.009e-4
1.009,   3.002e-4
1.012,   2.986e-4
1.015,   2.983e-4
1.018,   2.969e-4
1.021,   2.970e-4
1.024,   2.952e-4
1.027,   2.951e-4
1.030,   2.939e-4
1.033,   2.922e-4
1.036,   2.928e-4
1.039,   2.924e-4
1.042,   2.921e-4
1.045,   2.919e-4
1.048,   2.918e-4
1.051,   2.926e-4
1.054,   2.923e-4
1.057,   2.929e-4
1.060,   2.934e-4
1.063,   2.936e-4
1.066,   2.943e-4
1.069,   2.949e-4
1.072,   2.955e-4
1.075,   2.961e-4
1.078,   2.969e-4
1.081,   2.983e-4
1.084,   2.985e-4
1.087,   2.996e-4
1.090,   3.002e-4
1.093,   3.014e-4
1.096,   3.020e-4
1.099,   3.025e-4
1.102,   3.035e-4
1.105,   3.045e-4
1.108,   3.046e-4
1.111,   3.055e-4
1.114,   3.061e-4
1.117,   3.064e-4
1.120,   3.073e-4
1.123,   3.075e-4
1.126,   3.094e-4
1.129,   3.100e-4
1.132,   3.110e-4
1.135,   3.118e-4
1.138,   3.130e-4
1.141,   3.145e-4
1.144,   3.175e-4
1.147,   3.177e-4
1.150,   3.193e-4
1.153,   3.206e-4
1.156,   3.201e-4
1.159,   3.224e-4
1.162,   3.248e-4
1.165,   3.265e-4
1.168,   3.281e-4
1.171,   3.294e-4
1.174,   3.320e-4
1.177,   3.335e-4
1.180,   3.339e-4
1.183,   3.357e-4
1.186,   3.363e-4
1.189,   3.378e-4
1.192,   3.394e-4
1.195,   3.414e-4
1.198,   3.424e-4
1.201,   3.448e-4
1.204,   3.457e-4
1.207,   3.486e-4
1.210,   3.518e-4
1.213,   3.555e-4
1.216,   3.576e-4
1.219,   3.592e-4
1.222,   3.612e-4
1.225,   3.638e-4
1.228,   3.672e-4
1.231,   3.702e-4
1.234,   3.727e-4
1.237,   3.758e-4
1.240,   3.791e-4
1.243,   3.814e-4
1.246,   3.846e-4
1.249,   3.878e-4
1.252,   3.903e-4
1.255,   3.935e-4
1.258,   3.967e-4
1.261,   3.992e-4
1.264,   4.019e-4
1.267,   4.033e-4
1.270,   4.061e-4
1.273,   4.079e-4
1.276,   4.102e-4
1.279,   4.119e-4
1.282,   4.149e-4
1.285,   4.172e-4
1.288,   4.193e-4
1.291,   4.220e-4
1.294,   4.244e-4
1.297,   4.272e-4
1.300,   4.291e-4
1.303,   4.315e-4
1.306,   4.331e-4
1.309,   4.363e-4
1.312,   4.396e-4
1.315,   4.421e-4
1.318,   4.454e-4
1.321,   4.478e-4
1.324,   4.526e-4
1.327,   4.561e-4
1.330,   4.613e-4
1.333,   4.651e-4
1.336,   4.702e-4
1.339,   4.742e-4
1.342,   4.774e-4
1.345,   4.828e-4
1.348,   4.864e-4
1.351,   4.857e-4
1.354,   4.868e-4
1.357,   4.826e-4
1.360,   4.897e-4
1.363,   5.261e-4
1.366,   5.315e-4
1.369,   4.886e-4
1.372,   5.581e-4
1.375,   5.202e-4
1.378,   5.690e-4
1.381,   5.929e-4
1.384,   6.201e-4
1.387,   6.422e-4
1.390,   6.674e-4
1.393,   6.845e-4
1.396,   7.007e-4
1.399,   6.987e-4
1.402,   7.215e-4
1.405,   7.687e-4
1.408,   7.542e-4
1.411,   8.081e-4
1.414,   8.900e-4
1.417,   8.596e-4
1.420,   1.106e-3
1.423,   1.096e-3
1.426,   1.167e-3
1.429,   1.313e-3
1.432,   1.487e-3
1.435,   1.662e-3
1.438,   1.878e-3
1.441,   2.113e-3
1.444,   2.443e-3
1.447,   2.763e-3
1.450,   3.085e-3
1.453,   3.316e-3
1.456,   3.886e-3
1.459,   4.404e-3
1.462,   5.081e-3
1.465,   5.812e-3
1.468,   6.599e-3
1.471,   7.524e-3
1.474,   8.578e-3
1.477,   9.499e-3
1.480,   9.973e-3
1.483,   1.007e-2
1.486,   1.007e-2
1.489,   1.007e-2
1.492,   1.007e-2
1.494,   1.007e-2