File: Experimental Records, Raw Data, and Supplementary Notes and Figures/batch5/final500/B5_BEST_500_#1_High_Quality(#25)-196mV.txt
June 9, 2023   11:44:07
Linear Sweep Voltammetry
File: d:\current work\al_oer\electrochemical test data\batch 5\500\B5_BEST_500_#1_High_Quality(#25)-196mV.txt
Data Source:  Experiment
Instrument Model:  CHI660E
Header:
Note:

Init E (V) = 0.893

Final E (V) = 1.494

Scan Rate (V/s) = 0.010
Sample Interval (V) = 0.001
Quiet Time (sec) = 2
Sensitivity (A/V) = 0.001
Comp R (ohm) = 5.2

Results:

Channel 1:

Potential/V, Current/A
0.893,   2.366e-4
0.896,   2.766e-4
0.899,   2.811e-4
0.902,   2.753e-4
0.905,   2.778e-4
0.908,   2.705e-4
0.911,   2.720e-4
0.914,   2.659e-4
0.917,   2.680e-4
0.920,   2.623e-4
0.923,   2.607e-4
0.926,   2.584e-4
0.929,   2.570e-4
0.932,   2.564e-4
0.935,   2.535e-4
0.938,   2.514e-4
0.941,   2.497e-4
0.944,   2.508e-4
0.947,   2.477e-4
0.950,   2.482e-4
0.953,   2.442e-4
0.956,   2.472e-4
0.959,   2.422e-4
0.962,   2.449e-4
0.965,   2.407e-4
0.968,   2.424e-4
0.971,   2.389e-4
0.974,   2.413e-4
0.977,   2.382e-4
0.980,   2.391e-4
0.983,   2.370e-4
0.986,   2.372e-4
0.989,   2.356e-4
0.992,   2.368e-4
0.995,   2.339e-4
0.998,   2.352e-4
1.001,   2.333e-4
1.004,   2.350e-4
1.007,   2.319e-4
1.010,   2.346e-4
1.013,   2.314e-4
1.016,   2.334e-4
1.019,   2.333e-4
1.022,   2.332e-4
1.025,   2.306e-4
1.028,   2.314e-4
1.031,   2.300e-4
1.034,   2.316e-4
1.037,   2.327e-4
1.040,   2.317e-4
1.043,   2.308e-4
1.046,   2.301e-4
1.049,   2.320e-4
1.052,   2.326e-4
1.055,   2.312e-4
1.058,   2.330e-4
1.061,   2.320e-4
1.064,   2.347e-4
1.067,   2.326e-4
1.070,   2.352e-4
1.073,   2.339e-4
1.076,   2.371e-4
1.079,   2.352e-4
1.082,   2.384e-4
1.085,   2.379e-4
1.088,   2.404e-4
1.091,   2.401e-4
1.094,   2.415e-4
1.097,   2.448e-4
1.100,   2.436e-4
1.103,   2.485e-4
1.106,   2.461e-4
1.109,   2.507e-4
1.112,   2.488e-4
1.115,   2.533e-4
1.118,   2.500e-4
1.121,   2.579e-4
1.124,   2.537e-4
1.127,   2.608e-4
1.130,   2.592e-4
1.133,   2.625e-4
1.136,   2.605e-4
1.139,   2.660e-4
1.142,   2.627e-4
1.145,   2.684e-4
1.148,   2.653e-4
1.151,   2.700e-4
1.154,   2.679e-4
1.157,   2.737e-4
1.160,   2.719e-4
1.163,   2.775e-4
1.166,   2.760e-4
1.169,   2.810e-4
1.172,   2.813e-4
1.175,   2.858e-4
1.178,   2.845e-4
1.181,   2.908e-4
1.184,   2.901e-4
1.187,   2.951e-4
1.190,   2.946e-4
1.193,   3.016e-4
1.196,   3.016e-4
1.199,   3.079e-4
1.202,   3.107e-4
1.205,   3.115e-4
1.208,   3.149e-4
1.211,   3.178e-4
1.214,   3.229e-4
1.217,   3.247e-4
1.220,   3.323e-4
1.223,   3.310e-4
1.226,   3.396e-4
1.229,   3.394e-4
1.232,   3.436e-4
1.235,   3.506e-4
1.238,   3.505e-4
1.241,   3.555e-4
1.244,   3.582e-4
1.247,   3.660e-4
1.250,   3.642e-4
1.253,   3.730e-4
1.256,   3.705e-4
1.259,   3.777e-4
1.262,   3.756e-4
1.265,   3.854e-4
1.268,   3.816e-4
1.271,   3.922e-4
1.274,   3.926e-4
1.277,   3.992e-4
1.280,   4.026e-4
1.283,   4.132e-4
1.286,   4.131e-4
1.289,   4.214e-4
1.292,   4.254e-4
1.295,   4.332e-4
1.298,   4.355e-4
1.301,   4.504e-4
1.304,   4.536e-4
1.307,   4.633e-4
1.310,   4.670e-4
1.313,   4.786e-4
1.316,   4.771e-4
1.319,   4.935e-4
1.322,   4.971e-4
1.325,   5.116e-4
1.328,   5.169e-4
1.331,   5.304e-4
1.334,   5.380e-4
1.337,   5.473e-4
1.340,   5.561e-4
1.343,   5.641e-4
1.346,   5.753e-4
1.349,   5.839e-4
1.352,   5.991e-4
1.355,   6.036e-4
1.358,   6.211e-4
1.361,   6.285e-4
1.364,   6.456e-4
1.367,   6.568e-4
1.370,   6.794e-4
1.373,   6.927e-4
1.376,   7.165e-4
1.379,   7.308e-4
1.382,   7.602e-4
1.385,   7.951e-4
1.388,   8.158e-4
1.391,   8.675e-4
1.394,   8.902e-4
1.397,   9.561e-4
1.400,   9.836e-4
1.403,   1.071e-3
1.406,   1.108e-3
1.409,   1.184e-3
1.412,   1.267e-3
1.415,   1.357e-3
1.418,   1.483e-3
1.421,   1.602e-3
1.424,   1.782e-3
1.427,   1.939e-3
1.430,   2.179e-3
1.433,   2.407e-3
1.436,   2.729e-3
1.439,   3.059e-3
1.442,   3.507e-3
1.445,   3.963e-3
1.448,   4.577e-3
1.451,   5.195e-3
1.454,   5.877e-3
1.457,   6.715e-3
1.460,   7.427e-3
1.463,   8.130e-3
1.466,   8.785e-3
1.469,   9.485e-3
1.472,   9.871e-3
1.475,   1.007e-2
1.478,   1.007e-2
1.481,   1.007e-2
1.484,   1.007e-2
1.487,   1.007e-2
1.490,   1.007e-2
1.493,   1.007e-2
1.494,   1.007e-2