File: Experimental Records, Raw Data, and Supplementary Notes and Figures/batch5/final500/B5_BEST_500_#1_High_Quality(#20)-215mV.txt
June 9, 2023   14:27:16
Linear Sweep Voltammetry
File: d:\current work\al_oer\electrochemical test data\batch 5\500\B5_BEST_500_#1_High_Quality(#20)-215mV.txt
Data Source:  Experiment
Instrument Model:  CHI660E
Header:
Note:

Init E (V) = 0.890

Final E (V) = 1.532

Scan Rate (V/s) = 0.010
Sample Interval (V) = 0.001
Quiet Time (sec) = 2
Sensitivity (A/V) = 0.001

Results:

Channel 1:

Potential/V, Current/A
0.890,   2.532e-4
0.893,   3.493e-4
0.896,   3.517e-4
0.899,   3.477e-4
0.902,   3.459e-4
0.905,   3.380e-4
0.908,   3.368e-4
0.911,   3.332e-4
0.914,   3.272e-4
0.917,   3.240e-4
0.920,   3.200e-4
0.923,   3.187e-4
0.926,   3.129e-4
0.929,   3.131e-4
0.932,   3.095e-4
0.935,   3.052e-4
0.938,   3.033e-4
0.941,   2.998e-4
0.944,   2.972e-4
0.947,   2.959e-4
0.950,   2.941e-4
0.953,   2.920e-4
0.956,   2.894e-4
0.959,   2.891e-4
0.962,   2.861e-4
0.965,   2.857e-4
0.968,   2.812e-4
0.971,   2.819e-4
0.974,   2.813e-4
0.977,   2.785e-4
0.980,   2.766e-4
0.983,   2.772e-4
0.986,   2.752e-4
0.989,   2.763e-4
0.992,   2.740e-4
0.995,   2.748e-4
0.998,   2.737e-4
1.001,   2.693e-4
1.004,   2.715e-4
1.007,   2.707e-4
1.010,   2.710e-4
1.013,   2.692e-4
1.016,   2.679e-4
1.019,   2.697e-4
1.022,   2.673e-4
1.025,   2.690e-4
1.028,   2.691e-4
1.031,   2.656e-4
1.034,   2.691e-4
1.037,   2.681e-4
1.040,   2.688e-4
1.043,   2.655e-4
1.046,   2.677e-4
1.049,   2.677e-4
1.052,   2.688e-4
1.055,   2.674e-4
1.058,   2.707e-4
1.061,   2.699e-4
1.064,   2.701e-4
1.067,   2.680e-4
1.070,   2.704e-4
1.073,   2.728e-4
1.076,   2.704e-4
1.079,   2.701e-4
1.082,   2.735e-4
1.085,   2.752e-4
1.088,   2.740e-4
1.091,   2.733e-4
1.094,   2.771e-4
1.097,   2.787e-4
1.100,   2.786e-4
1.103,   2.794e-4
1.106,   2.802e-4
1.109,   2.841e-4
1.112,   2.824e-4
1.115,   2.846e-4
1.118,   2.883e-4
1.121,   2.893e-4
1.124,   2.882e-4
1.127,   2.904e-4
1.130,   2.965e-4
1.133,   2.957e-4
1.136,   2.958e-4
1.139,   2.969e-4
1.142,   2.973e-4
1.145,   3.006e-4
1.148,   3.000e-4
1.151,   3.042e-4
1.154,   3.071e-4
1.157,   3.105e-4
1.160,   3.069e-4
1.163,   3.100e-4
1.166,   3.137e-4
1.169,   3.181e-4
1.172,   3.165e-4
1.175,   3.210e-4
1.178,   3.241e-4
1.181,   3.287e-4
1.184,   3.259e-4
1.187,   3.332e-4
1.190,   3.345e-4
1.193,   3.383e-4
1.196,   3.366e-4
1.199,   3.432e-4
1.202,   3.442e-4
1.205,   3.503e-4
1.208,   3.468e-4
1.211,   3.534e-4
1.214,   3.565e-4
1.217,   3.601e-4
1.220,   3.628e-4
1.223,   3.668e-4
1.226,   3.700e-4
1.229,   3.719e-4
1.232,   3.735e-4
1.235,   3.796e-4
1.238,   3.808e-4
1.241,   3.842e-4
1.244,   3.854e-4
1.247,   3.907e-4
1.250,   3.929e-4
1.253,   3.970e-4
1.256,   3.958e-4
1.259,   4.023e-4
1.262,   4.068e-4
1.265,   4.069e-4
1.268,   4.071e-4
1.271,   4.134e-4
1.274,   4.156e-4
1.277,   4.173e-4
1.280,   4.196e-4
1.283,   4.238e-4
1.286,   4.237e-4
1.289,   4.269e-4
1.292,   4.319e-4
1.295,   4.336e-4
1.298,   4.335e-4
1.301,   4.362e-4
1.304,   4.411e-4
1.307,   4.436e-4
1.310,   4.459e-4
1.313,   4.498e-4
1.316,   4.504e-4
1.319,   4.554e-4
1.322,   4.601e-4
1.325,   4.607e-4
1.328,   4.640e-4
1.331,   4.722e-4
1.334,   4.759e-4
1.337,   4.761e-4
1.340,   4.812e-4
1.343,   4.869e-4
1.346,   4.967e-4
1.349,   4.970e-4
1.352,   4.990e-4
1.355,   5.083e-4
1.358,   5.129e-4
1.361,   5.144e-4
1.364,   5.246e-4
1.367,   5.347e-4
1.370,   5.450e-4
1.373,   5.545e-4
1.376,   5.619e-4
1.379,   5.731e-4
1.382,   5.891e-4
1.385,   5.992e-4
1.388,   6.145e-4
1.391,   6.278e-4
1.394,   6.467e-4
1.397,   6.630e-4
1.400,   6.897e-4
1.403,   7.148e-4
1.406,   7.474e-4
1.409,   7.728e-4
1.412,   8.297e-4
1.415,   8.675e-4
1.418,   9.308e-4
1.421,   9.753e-4
1.424,   1.066e-3
1.427,   1.145e-3
1.430,   1.238e-3
1.433,   1.337e-3
1.436,   1.463e-3
1.439,   1.599e-3
1.442,   1.749e-3
1.445,   1.884e-3
1.448,   2.106e-3
1.451,   2.290e-3
1.454,   2.495e-3
1.457,   2.674e-3
1.460,   2.943e-3
1.463,   3.180e-3
1.466,   3.427e-3
1.469,   3.697e-3
1.472,   4.029e-3
1.475,   4.343e-3
1.478,   4.651e-3
1.481,   4.950e-3
1.484,   5.242e-3
1.487,   5.621e-3
1.490,   5.918e-3
1.493,   6.179e-3
1.496,   6.594e-3
1.499,   6.944e-3
1.502,   7.283e-3
1.505,   7.609e-3
1.508,   8.079e-3
1.511,   8.389e-3
1.514,   8.686e-3
1.517,   9.108e-3
1.520,   9.503e-3
1.523,   9.796e-3
1.526,   1.002e-2
1.529,   1.007e-2
1.532,   1.007e-2