File: Experimental Records, Raw Data, and Supplementary Notes and Figures/batch5/final500/B5_BEST_500_#1_Full(#2)-243mV.txt
June 9, 2023   11:31:35
Linear Sweep Voltammetry
File: d:\current work\al_oer\electrochemical test data\batch 5\500\B5_BEST_500_#1_Full(#2)-243mV.txt
Data Source:  Experiment
Instrument Model:  CHI660E
Header:
Note:

Init E (V) = 0.908

Final E (V) = 1.565

Scan Rate (V/s) = 0.010
Sample Interval (V) = 0.001
Quiet Time (sec) = 2
Sensitivity (A/V) = 0.001
Comp R (ohm) = 5.0

Results:

Channel 1:

Potential/V, Current/A
0.908,   5.400e-4
0.911,   5.625e-4
0.914,   5.516e-4
0.917,   5.400e-4
0.920,   5.284e-4
0.923,   5.150e-4
0.926,   5.040e-4
0.929,   4.932e-4
0.932,   4.843e-4
0.935,   4.750e-4
0.938,   4.671e-4
0.941,   4.593e-4
0.944,   4.527e-4
0.947,   4.447e-4
0.950,   4.371e-4
0.953,   4.308e-4
0.956,   4.245e-4
0.959,   4.164e-4
0.962,   4.112e-4
0.965,   4.056e-4
0.968,   4.006e-4
0.971,   3.965e-4
0.974,   3.916e-4
0.977,   3.888e-4
0.980,   3.870e-4
0.983,   3.840e-4
0.986,   3.817e-4
0.989,   3.783e-4
0.992,   3.766e-4
0.995,   3.738e-4
0.998,   3.705e-4
1.001,   3.677e-4
1.004,   3.659e-4
1.007,   3.631e-4
1.010,   3.612e-4
1.013,   3.593e-4
1.016,   3.571e-4
1.019,   3.556e-4
1.022,   3.539e-4
1.025,   3.534e-4
1.028,   3.545e-4
1.031,   3.537e-4
1.034,   3.530e-4
1.037,   3.536e-4
1.040,   3.540e-4
1.043,   3.531e-4
1.046,   3.532e-4
1.049,   3.532e-4
1.052,   3.530e-4
1.055,   3.531e-4
1.058,   3.533e-4
1.061,   3.525e-4
1.064,   3.528e-4
1.067,   3.544e-4
1.070,   3.550e-4
1.073,   3.562e-4
1.076,   3.583e-4
1.079,   3.607e-4
1.082,   3.631e-4
1.085,   3.651e-4
1.088,   3.675e-4
1.091,   3.702e-4
1.094,   3.719e-4
1.097,   3.728e-4
1.100,   3.748e-4
1.103,   3.752e-4
1.106,   3.767e-4
1.109,   3.798e-4
1.112,   3.815e-4
1.115,   3.848e-4
1.118,   3.891e-4
1.121,   3.938e-4
1.124,   3.990e-4
1.127,   4.031e-4
1.130,   4.087e-4
1.133,   4.125e-4
1.136,   4.154e-4
1.139,   4.189e-4
1.142,   4.216e-4
1.145,   4.239e-4
1.148,   4.273e-4
1.151,   4.304e-4
1.154,   4.337e-4
1.157,   4.385e-4
1.160,   4.430e-4
1.163,   4.485e-4
1.166,   4.541e-4
1.169,   4.604e-4
1.172,   4.661e-4
1.175,   4.727e-4
1.178,   4.773e-4
1.181,   4.827e-4
1.184,   4.879e-4
1.187,   4.898e-4
1.190,   4.953e-4
1.193,   4.985e-4
1.196,   5.037e-4
1.199,   5.079e-4
1.202,   5.118e-4
1.205,   5.178e-4
1.208,   5.239e-4
1.211,   5.314e-4
1.214,   5.404e-4
1.217,   5.508e-4
1.220,   5.580e-4
1.223,   5.658e-4
1.226,   5.751e-4
1.229,   5.789e-4
1.232,   5.843e-4
1.235,   5.891e-4
1.238,   5.952e-4
1.241,   6.009e-4
1.244,   6.060e-4
1.247,   6.122e-4
1.250,   6.168e-4
1.253,   6.254e-4
1.256,   6.369e-4
1.259,   6.488e-4
1.262,   6.620e-4
1.265,   6.714e-4
1.268,   6.837e-4
1.271,   6.953e-4
1.274,   7.056e-4
1.277,   7.120e-4
1.280,   7.209e-4
1.283,   7.304e-4
1.286,   7.365e-4
1.289,   7.430e-4
1.292,   7.510e-4
1.295,   7.594e-4
1.298,   7.677e-4
1.301,   7.831e-4
1.304,   7.967e-4
1.307,   8.132e-4
1.310,   8.339e-4
1.313,   8.495e-4
1.316,   8.699e-4
1.319,   8.829e-4
1.322,   8.971e-4
1.325,   9.088e-4
1.328,   9.228e-4
1.331,   9.355e-4
1.334,   9.478e-4
1.337,   9.580e-4
1.340,   9.771e-4
1.343,   9.816e-4
1.346,   9.973e-4
1.349,   1.014e-3
1.352,   1.034e-3
1.355,   1.061e-3
1.358,   1.083e-3
1.361,   1.107e-3
1.364,   1.129e-3
1.367,   1.152e-3
1.370,   1.164e-3
1.373,   1.177e-3
1.376,   1.190e-3
1.379,   1.203e-3
1.382,   1.217e-3
1.385,   1.222e-3
1.388,   1.233e-3
1.391,   1.234e-3
1.394,   1.253e-3
1.397,   1.270e-3
1.400,   1.291e-3
1.403,   1.321e-3
1.406,   1.342e-3
1.409,   1.375e-3
1.412,   1.399e-3
1.415,   1.414e-3
1.418,   1.431e-3
1.421,   1.443e-3
1.424,   1.451e-3
1.427,   1.472e-3
1.430,   1.483e-3
1.433,   1.486e-3
1.436,   1.493e-3
1.439,   1.504e-3
1.442,   1.513e-3
1.445,   1.533e-3
1.448,   1.573e-3
1.451,   1.618e-3
1.454,   1.675e-3
1.457,   1.727e-3
1.460,   1.779e-3
1.463,   1.810e-3
1.466,   1.859e-3
1.469,   1.921e-3
1.472,   1.973e-3
1.475,   2.038e-3
1.478,   2.139e-3
1.481,   2.236e-3
1.484,   2.340e-3
1.487,   2.380e-3
1.490,   2.518e-3
1.493,   2.667e-3
1.496,   2.848e-3
1.499,   3.050e-3
1.502,   3.314e-3
1.505,   3.599e-3
1.508,   3.888e-3
1.511,   4.200e-3
1.514,   4.530e-3
1.517,   4.806e-3
1.520,   5.191e-3
1.523,   5.582e-3
1.526,   5.991e-3
1.529,   6.425e-3
1.532,   6.847e-3
1.535,   7.295e-3
1.538,   7.885e-3
1.541,   8.652e-3
1.544,   8.957e-3
1.547,   9.445e-3
1.550,   9.777e-3
1.553,   1.001e-2
1.556,   1.007e-2
1.559,   1.007e-2
1.562,   1.007e-2
1.565,   1.007e-2