File: Experimental Records, Raw Data, and Supplementary Notes and Figures/batch5/final500/B5_BEST_500_#1_High_Quality(#32)-168mV.txt
June 9, 2023   16:51:46
Linear Sweep Voltammetry
File: d:\current work\al_oer\electrochemical test data\batch 5\500\B5_BEST_500_#1_High_Quality(#32)-168mV.txt
Data Source:  Experiment
Instrument Model:  CHI660E
Header:
Note:

Init E (V) = 0.907

Final E (V) = 1.478

Scan Rate (V/s) = 0.010
Sample Interval (V) = 0.001
Quiet Time (sec) = 2
Sensitivity (A/V) = 0.001
Comp R (ohm) = 4.0

Results:

Channel 1:

Potential/V, Current/A
0.907,   9.099e-4
0.909,   1.096e-3
0.911,   1.003e-3
0.913,   1.061e-3
0.915,   9.614e-4
0.917,   1.009e-3
0.919,   9.205e-4
0.921,   9.686e-4
0.923,   8.837e-4
0.925,   9.367e-4
0.927,   8.551e-4
0.929,   9.086e-4
0.931,   8.295e-4
0.933,   8.829e-4
0.935,   8.033e-4
0.937,   8.643e-4
0.939,   7.874e-4
0.941,   8.389e-4
0.943,   7.698e-4
0.945,   8.169e-4
0.947,   7.609e-4
0.949,   7.986e-4
0.951,   7.407e-4
0.953,   7.888e-4
0.955,   7.331e-4
0.957,   7.700e-4
0.959,   7.214e-4
0.961,   7.609e-4
0.963,   7.178e-4
0.965,   7.399e-4
0.967,   7.077e-4
0.969,   7.345e-4
0.971,   6.972e-4
0.973,   7.310e-4
0.975,   6.911e-4
0.977,   7.251e-4
0.979,   6.868e-4
0.981,   7.045e-4
0.983,   6.770e-4
0.985,   6.974e-4
0.987,   6.777e-4
0.989,   6.849e-4
0.991,   6.718e-4
0.993,   6.780e-4
0.995,   6.735e-4
0.997,   6.698e-4
0.999,   6.697e-4
1.001,   6.665e-4
1.003,   6.756e-4
1.005,   6.681e-4
1.007,   6.631e-4
1.009,   6.632e-4
1.011,   6.622e-4
1.013,   6.558e-4
1.015,   6.659e-4
1.017,   6.492e-4
1.019,   6.665e-4
1.021,   6.406e-4
1.023,   6.691e-4
1.025,   6.426e-4
1.027,   6.684e-4
1.029,   6.406e-4
1.031,   6.788e-4
1.033,   6.447e-4
1.035,   6.734e-4
1.037,   6.410e-4
1.039,   6.757e-4
1.041,   6.385e-4
1.043,   6.801e-4
1.045,   6.317e-4
1.047,   6.869e-4
1.049,   6.341e-4
1.051,   6.958e-4
1.053,   6.321e-4
1.055,   6.871e-4
1.057,   6.371e-4
1.059,   6.864e-4
1.061,   6.320e-4
1.063,   6.925e-4
1.065,   6.374e-4
1.067,   7.028e-4
1.069,   6.281e-4
1.071,   7.025e-4
1.073,   6.344e-4
1.075,   7.011e-4
1.077,   6.277e-4
1.079,   7.133e-4
1.081,   6.305e-4
1.083,   7.276e-4
1.085,   6.293e-4
1.087,   7.179e-4
1.089,   6.357e-4
1.091,   7.173e-4
1.093,   6.363e-4
1.095,   7.173e-4
1.097,   6.404e-4
1.099,   7.150e-4
1.101,   6.419e-4
1.103,   7.179e-4
1.105,   6.461e-4
1.107,   7.171e-4
1.109,   6.482e-4
1.111,   7.168e-4
1.113,   6.538e-4
1.115,   7.158e-4
1.117,   6.583e-4
1.119,   7.197e-4
1.121,   6.694e-4
1.123,   7.203e-4
1.125,   6.552e-4
1.127,   7.222e-4
1.129,   6.764e-4
1.131,   7.202e-4
1.133,   6.802e-4
1.135,   7.204e-4
1.137,   6.852e-4
1.139,   7.258e-4
1.141,   6.865e-4
1.143,   7.251e-4
1.145,   6.898e-4
1.147,   7.253e-4
1.149,   7.032e-4
1.151,   7.264e-4
1.153,   7.128e-4
1.155,   7.305e-4
1.157,   7.212e-4
1.159,   7.371e-4
1.161,   7.218e-4
1.163,   7.402e-4
1.165,   7.462e-4
1.167,   7.351e-4
1.169,   7.412e-4
1.171,   7.488e-4
1.173,   7.563e-4
1.175,   7.455e-4
1.177,   7.715e-4
1.179,   7.630e-4
1.181,   7.768e-4
1.183,   7.602e-4
1.185,   8.054e-4
1.187,   7.561e-4
1.189,   8.022e-4
1.191,   7.722e-4
1.193,   8.153e-4
1.195,   7.754e-4
1.197,   8.361e-4
1.199,   7.815e-4
1.201,   8.392e-4
1.203,   7.963e-4
1.205,   8.420e-4
1.207,   8.023e-4
1.209,   8.548e-4
1.211,   8.143e-4
1.213,   8.689e-4
1.215,   8.240e-4
1.217,   8.806e-4
1.219,   8.276e-4
1.221,   8.880e-4
1.223,   8.412e-4
1.225,   8.936e-4
1.227,   8.454e-4
1.229,   9.177e-4
1.231,   8.404e-4
1.233,   9.362e-4
1.235,   8.489e-4
1.237,   9.493e-4
1.239,   8.615e-4
1.241,   9.586e-4
1.243,   8.621e-4
1.245,   9.653e-4
1.247,   8.706e-4
1.249,   9.851e-4
1.251,   8.823e-4
1.253,   9.993e-4
1.255,   8.837e-4
1.257,   1.017e-3
1.259,   8.915e-4
1.261,   1.044e-3
1.263,   8.992e-4
1.265,   1.029e-3
1.267,   8.959e-4
1.269,   1.046e-3
1.271,   9.167e-4
1.273,   1.038e-3
1.275,   8.981e-4
1.277,   1.056e-3
1.279,   9.457e-4
1.281,   1.060e-3
1.283,   9.612e-4
1.285,   1.068e-3
1.287,   9.741e-4
1.289,   1.071e-3
1.291,   9.881e-4
1.293,   1.086e-3
1.295,   9.874e-4
1.297,   1.093e-3
1.299,   1.030e-3
1.301,   1.078e-3
1.303,   1.032e-3
1.305,   1.098e-3
1.307,   1.053e-3
1.309,   1.157e-3
1.311,   1.024e-3
1.313,   1.174e-3
1.315,   1.042e-3
1.317,   1.196e-3
1.319,   1.040e-3
1.321,   1.188e-3
1.323,   1.087e-3
1.325,   1.199e-3
1.327,   1.096e-3
1.329,   1.232e-3
1.331,   1.114e-3
1.333,   1.247e-3
1.335,   1.127e-3
1.337,   1.261e-3
1.339,   1.148e-3
1.341,   1.290e-3
1.343,   1.152e-3
1.345,   1.282e-3
1.347,   1.222e-3
1.349,   1.275e-3
1.351,   1.264e-3
1.353,   1.240e-3
1.355,   1.328e-3
1.357,   1.309e-3
1.359,   1.296e-3
1.361,   1.344e-3
1.363,   1.335e-3
1.365,   1.362e-3
1.367,   1.374e-3
1.369,   1.375e-3
1.371,   1.442e-3
1.373,   1.355e-3
1.375,   1.529e-3
1.377,   1.436e-3
1.379,   1.548e-3
1.381,   1.495e-3
1.383,   1.582e-3
1.385,   1.553e-3
1.387,   1.659e-3
1.389,   1.597e-3
1.391,   1.743e-3
1.393,   1.705e-3
1.395,   1.847e-3
1.397,   1.774e-3
1.399,   1.981e-3
1.401,   1.864e-3
1.403,   2.107e-3
1.405,   2.013e-3
1.407,   2.239e-3
1.409,   2.164e-3
1.411,   2.442e-3
1.413,   2.334e-3
1.415,   2.634e-3
1.417,   2.592e-3
1.419,   2.878e-3
1.421,   2.850e-3
1.423,   3.178e-3
1.425,   3.167e-3
1.427,   3.571e-3
1.429,   3.558e-3
1.431,   4.078e-3
1.433,   4.029e-3
1.435,   4.659e-3
1.437,   4.652e-3
1.439,   5.486e-3
1.441,   5.451e-3
1.443,   6.487e-3
1.445,   6.341e-3
1.447,   7.364e-3
1.449,   7.734e-3
1.451,   8.663e-3
1.453,   9.117e-3
1.455,   9.856e-3
1.457,   1.000e-2
1.459,   1.007e-2
1.461,   1.007e-2
1.463,   1.007e-2
1.465,   1.007e-2
1.467,   1.007e-2
1.469,   1.007e-2
1.471,   1.007e-2
1.473,   1.007e-2
1.475,   1.007e-2
1.477,   1.007e-2
1.478,   1.007e-2