File: Experimental Records, Raw Data, and Supplementary Notes and Figures/batch5/final500/B5_BEST_500_#1_High_Quality(#28)-188mV.txt
June 9, 2023   15:58:02
Linear Sweep Voltammetry
File: d:\current work\al_oer\electrochemical test data\batch 5\500\B5_BEST_500_#1_High_Quality(#28)-188mV.txt
Data Source:  Experiment
Instrument Model:  CHI660E
Header:
Note:

Init E (V) = 0.882

Final E (V) = 1.497

Scan Rate (V/s) = 0.010
Sample Interval (V) = 0.001
Quiet Time (sec) = 2
Sensitivity (A/V) = 0.001
Comp R (ohm) = 4.8

Results:

Channel 1:

Potential/V, Current/A
0.882,   2.539e-4
0.885,   3.113e-4
0.888,   3.168e-4
0.891,   3.259e-4
0.894,   3.274e-4
0.897,   3.151e-4
0.900,   3.048e-4
0.903,   2.924e-4
0.906,   3.023e-4
0.909,   3.131e-4
0.912,   3.123e-4
0.915,   3.023e-4
0.918,   2.842e-4
0.921,   2.819e-4
0.924,   2.857e-4
0.927,   2.951e-4
0.930,   3.039e-4
0.933,   2.841e-4
0.936,   2.786e-4
0.939,   2.695e-4
0.942,   2.791e-4
0.945,   2.900e-4
0.948,   2.890e-4
0.951,   2.798e-4
0.954,   2.629e-4
0.957,   2.652e-4
0.960,   2.710e-4
0.963,   2.815e-4
0.966,   2.821e-4
0.969,   2.676e-4
0.972,   2.609e-4
0.975,   2.561e-4
0.978,   2.686e-4
0.981,   2.788e-4
0.984,   2.758e-4
0.987,   2.646e-4
0.990,   2.482e-4
0.993,   2.558e-4
0.996,   2.618e-4
0.999,   2.713e-4
1.002,   2.730e-4
1.005,   2.589e-4
1.008,   2.577e-4
1.011,   2.525e-4
1.014,   2.633e-4
1.017,   2.717e-4
1.020,   2.647e-4
1.023,   2.581e-4
1.026,   2.465e-4
1.029,   2.541e-4
1.032,   2.638e-4
1.035,   2.721e-4
1.038,   2.690e-4
1.041,   2.542e-4
1.044,   2.496e-4
1.047,   2.547e-4
1.050,   2.668e-4
1.053,   2.733e-4
1.056,   2.697e-4
1.059,   2.547e-4
1.062,   2.479e-4
1.065,   2.595e-4
1.068,   2.714e-4
1.071,   2.785e-4
1.074,   2.679e-4
1.077,   2.557e-4
1.080,   2.572e-4
1.083,   2.645e-4
1.086,   2.727e-4
1.089,   2.824e-4
1.092,   2.726e-4
1.095,   2.612e-4
1.098,   2.596e-4
1.101,   2.694e-4
1.104,   2.854e-4
1.107,   2.874e-4
1.110,   2.767e-4
1.113,   2.630e-4
1.116,   2.694e-4
1.119,   2.801e-4
1.122,   2.942e-4
1.125,   2.979e-4
1.128,   2.817e-4
1.131,   2.769e-4
1.134,   2.744e-4
1.137,   2.922e-4
1.140,   3.066e-4
1.143,   3.029e-4
1.146,   2.904e-4
1.149,   2.769e-4
1.152,   2.900e-4
1.155,   3.057e-4
1.158,   3.120e-4
1.161,   3.120e-4
1.164,   2.894e-4
1.167,   2.951e-4
1.170,   3.012e-4
1.173,   3.157e-4
1.176,   3.359e-4
1.179,   3.158e-4
1.182,   3.087e-4
1.185,   2.971e-4
1.188,   3.087e-4
1.191,   3.437e-4
1.194,   3.341e-4
1.197,   3.325e-4
1.200,   3.132e-4
1.203,   3.174e-4
1.206,   3.330e-4
1.209,   3.466e-4
1.212,   3.675e-4
1.215,   3.377e-4
1.218,   3.337e-4
1.221,   3.302e-4
1.224,   3.541e-4
1.227,   3.831e-4
1.230,   3.654e-4
1.233,   3.678e-4
1.236,   3.425e-4
1.239,   3.585e-4
1.242,   3.847e-4
1.245,   3.888e-4
1.248,   4.103e-4
1.251,   3.666e-4
1.254,   3.785e-4
1.257,   3.755e-4
1.260,   3.873e-4
1.263,   4.353e-4
1.266,   4.005e-4
1.269,   4.126e-4
1.272,   3.794e-4
1.275,   4.045e-4
1.278,   4.393e-4
1.281,   4.242e-4
1.284,   4.592e-4
1.287,   3.978e-4
1.290,   4.177e-4
1.293,   4.306e-4
1.296,   4.454e-4
1.299,   4.979e-4
1.302,   4.396e-4
1.305,   4.616e-4
1.308,   4.262e-4
1.311,   4.372e-4
1.314,   5.141e-4
1.317,   4.692e-4
1.320,   5.168e-4
1.323,   4.457e-4
1.326,   4.788e-4
1.329,   5.071e-4
1.332,   4.979e-4
1.335,   5.730e-4
1.338,   4.790e-4
1.341,   5.382e-4
1.344,   5.058e-4
1.347,   5.379e-4
1.350,   6.191e-4
1.353,   5.500e-4
1.356,   6.256e-4
1.359,   5.465e-4
1.362,   6.115e-4
1.365,   6.563e-4
1.368,   6.466e-4
1.371,   7.877e-4
1.374,   6.267e-4
1.377,   7.562e-4
1.380,   7.550e-4
1.383,   7.865e-4
1.386,   9.776e-4
1.389,   8.240e-4
1.392,   1.043e-3
1.395,   9.159e-4
1.398,   1.066e-3
1.401,   1.265e-3
1.404,   1.148e-3
1.407,   1.636e-3
1.410,   1.320e-3
1.413,   1.699e-3
1.416,   1.897e-3
1.419,   1.954e-3
1.422,   2.806e-3
1.425,   2.450e-3
1.428,   3.302e-3
1.431,   3.440e-3
1.434,   4.001e-3
1.437,   5.009e-3
1.440,   5.411e-3
1.443,   6.534e-3
1.446,   7.240e-3
1.449,   7.932e-3
1.452,   8.962e-3
1.455,   9.340e-3
1.458,   9.830e-3
1.461,   1.004e-2
1.464,   1.007e-2
1.467,   1.007e-2
1.470,   1.007e-2
1.473,   1.007e-2
1.476,   1.007e-2
1.479,   1.007e-2
1.482,   1.007e-2
1.485,   1.007e-2
1.488,   1.007e-2
1.491,   1.007e-2
1.494,   1.007e-2
1.497,   1.007e-2