File: Experimental Records, Raw Data, and Supplementary Notes and Figures/batch5/final500/B5_BEST_500_#1_High_Quality(#30)-196mV.txt
June 9, 2023   16:35:39
Linear Sweep Voltammetry
File: d:\current work\al_oer\electrochemical test data\batch 5\500\B5_BEST_500_#1_High_Quality(#30)-196mV.txt
Data Source:  Experiment
Instrument Model:  CHI660E
Header:
Note:

Init E (V) = 0.890

Final E (V) = 1.477

Scan Rate (V/s) = 0.010
Sample Interval (V) = 0.001
Quiet Time (sec) = 2
Sensitivity (A/V) = 0.001
Comp R (ohm) = 4.0

Results:

Channel 1:

Potential/V, Current/A
0.890,   3.189e-4
0.892,   3.921e-4
0.894,   3.916e-4
0.896,   3.867e-4
0.898,   3.830e-4
0.900,   3.787e-4
0.902,   3.756e-4
0.904,   3.709e-4
0.906,   3.718e-4
0.908,   3.675e-4
0.910,   3.615e-4
0.912,   3.668e-4
0.914,   3.590e-4
0.916,   3.574e-4
0.918,   3.601e-4
0.920,   3.523e-4
0.922,   3.489e-4
0.924,   3.527e-4
0.926,   3.451e-4
0.928,   3.444e-4
0.930,   3.479e-4
0.932,   3.398e-4
0.934,   3.411e-4
0.936,   3.390e-4
0.938,   3.411e-4
0.940,   3.327e-4
0.942,   3.321e-4
0.944,   3.367e-4
0.946,   3.333e-4
0.948,   3.291e-4
0.950,   3.363e-4
0.952,   3.298e-4
0.954,   3.297e-4
0.956,   3.303e-4
0.958,   3.227e-4
0.960,   3.239e-4
0.962,   3.298e-4
0.964,   3.224e-4
0.966,   3.249e-4
0.968,   3.303e-4
0.970,   3.215e-4
0.972,   3.205e-4
0.974,   3.233e-4
0.976,   3.203e-4
0.978,   3.221e-4
0.980,   3.213e-4
0.982,   3.194e-4
0.984,   3.198e-4
0.986,   3.178e-4
0.988,   3.200e-4
0.990,   3.177e-4
0.992,   3.163e-4
0.994,   3.185e-4
0.996,   3.168e-4
0.998,   3.141e-4
1.000,   3.211e-4
1.002,   3.168e-4
1.004,   3.140e-4
1.006,   3.207e-4
1.008,   3.145e-4
1.010,   3.157e-4
1.012,   3.188e-4
1.014,   3.150e-4
1.016,   3.183e-4
1.018,   3.151e-4
1.020,   3.192e-4
1.022,   3.126e-4
1.024,   3.197e-4
1.026,   3.137e-4
1.028,   3.207e-4
1.030,   3.142e-4
1.032,   3.194e-4
1.034,   3.180e-4
1.036,   3.150e-4
1.038,   3.213e-4
1.040,   3.184e-4
1.042,   3.154e-4
1.044,   3.233e-4
1.046,   3.169e-4
1.048,   3.180e-4
1.050,   3.218e-4
1.052,   3.168e-4
1.054,   3.179e-4
1.056,   3.236e-4
1.058,   3.182e-4
1.060,   3.176e-4
1.062,   3.223e-4
1.064,   3.213e-4
1.066,   3.234e-4
1.068,   3.236e-4
1.070,   3.253e-4
1.072,   3.254e-4
1.074,   3.238e-4
1.076,   3.275e-4
1.078,   3.270e-4
1.080,   3.268e-4
1.082,   3.363e-4
1.084,   3.266e-4
1.086,   3.287e-4
1.088,   3.369e-4
1.090,   3.305e-4
1.092,   3.300e-4
1.094,   3.398e-4
1.096,   3.338e-4
1.098,   3.311e-4
1.100,   3.412e-4
1.102,   3.322e-4
1.104,   3.423e-4
1.106,   3.416e-4
1.108,   3.374e-4
1.110,   3.414e-4
1.112,   3.434e-4
1.114,   3.439e-4
1.116,   3.453e-4
1.118,   3.442e-4
1.120,   3.501e-4
1.122,   3.465e-4
1.124,   3.461e-4
1.126,   3.544e-4
1.128,   3.524e-4
1.130,   3.517e-4
1.132,   3.569e-4
1.134,   3.512e-4
1.136,   3.552e-4
1.138,   3.700e-4
1.140,   3.550e-4
1.142,   3.598e-4
1.144,   3.667e-4
1.146,   3.598e-4
1.148,   3.641e-4
1.150,   3.676e-4
1.152,   3.668e-4
1.154,   3.698e-4
1.156,   3.694e-4
1.158,   3.732e-4
1.160,   3.718e-4
1.162,   3.722e-4
1.164,   3.802e-4
1.166,   3.744e-4
1.168,   3.796e-4
1.170,   3.879e-4
1.172,   3.802e-4
1.174,   3.841e-4
1.176,   3.974e-4
1.178,   3.830e-4
1.180,   3.898e-4
1.182,   3.985e-4
1.184,   3.889e-4
1.186,   3.949e-4
1.188,   4.015e-4
1.190,   3.968e-4
1.192,   4.050e-4
1.194,   4.054e-4
1.196,   4.038e-4
1.198,   4.057e-4
1.200,   4.096e-4
1.202,   4.172e-4
1.204,   4.085e-4
1.206,   4.138e-4
1.208,   4.275e-4
1.210,   4.138e-4
1.212,   4.196e-4
1.214,   4.334e-4
1.216,   4.187e-4
1.218,   4.253e-4
1.220,   4.391e-4
1.222,   4.240e-4
1.224,   4.327e-4
1.226,   4.442e-4
1.228,   4.319e-4
1.230,   4.358e-4
1.232,   4.497e-4
1.234,   4.422e-4
1.236,   4.404e-4
1.238,   4.496e-4
1.240,   4.531e-4
1.242,   4.484e-4
1.244,   4.549e-4
1.246,   4.599e-4
1.248,   4.545e-4
1.250,   4.620e-4
1.252,   4.675e-4
1.254,   4.562e-4
1.256,   4.660e-4
1.258,   4.808e-4
1.260,   4.598e-4
1.262,   4.664e-4
1.264,   4.899e-4
1.266,   4.660e-4
1.268,   4.658e-4
1.270,   4.996e-4
1.272,   4.759e-4
1.274,   4.803e-4
1.276,   4.955e-4
1.278,   4.870e-4
1.280,   4.810e-4
1.282,   5.019e-4
1.284,   4.949e-4
1.286,   4.862e-4
1.288,   5.013e-4
1.290,   5.164e-4
1.292,   4.931e-4
1.294,   5.061e-4
1.296,   5.213e-4
1.298,   4.888e-4
1.300,   5.128e-4
1.302,   5.275e-4
1.304,   5.046e-4
1.306,   5.157e-4
1.308,   5.388e-4
1.310,   5.099e-4
1.312,   5.197e-4
1.314,   5.520e-4
1.316,   5.234e-4
1.318,   5.291e-4
1.320,   5.452e-4
1.322,   5.374e-4
1.324,   5.372e-4
1.326,   5.467e-4
1.328,   5.528e-4
1.330,   5.435e-4
1.332,   5.555e-4
1.334,   5.683e-4
1.336,   5.483e-4
1.338,   5.657e-4
1.340,   5.885e-4
1.342,   5.615e-4
1.344,   5.715e-4
1.346,   6.043e-4
1.348,   5.763e-4
1.350,   5.885e-4
1.352,   6.134e-4
1.354,   5.909e-4
1.356,   5.982e-4
1.358,   6.294e-4
1.360,   6.105e-4
1.362,   6.042e-4
1.364,   6.463e-4
1.366,   6.424e-4
1.368,   6.289e-4
1.370,   6.608e-4
1.372,   6.803e-4
1.374,   6.452e-4
1.376,   6.815e-4
1.378,   7.098e-4
1.380,   6.808e-4
1.382,   7.086e-4
1.384,   7.580e-4
1.386,   7.206e-4
1.388,   7.468e-4
1.390,   8.174e-4
1.392,   7.769e-4
1.394,   8.008e-4
1.396,   8.761e-4
1.398,   8.489e-4
1.400,   8.740e-4
1.402,   9.531e-4
1.404,   9.591e-4
1.406,   9.726e-4
1.408,   1.060e-3
1.410,   1.118e-3
1.412,   1.116e-3
1.414,   1.214e-3
1.416,   1.326e-3
1.418,   1.332e-3
1.420,   1.450e-3
1.422,   1.631e-3
1.424,   1.659e-3
1.426,   1.793e-3
1.428,   2.058e-3
1.430,   2.101e-3
1.432,   2.307e-3
1.434,   2.640e-3
1.436,   2.772e-3
1.438,   3.033e-3
1.440,   3.488e-3
1.442,   3.733e-3
1.444,   4.060e-3
1.446,   4.643e-3
1.448,   5.026e-3
1.450,   5.485e-3
1.452,   6.131e-3
1.454,   6.791e-3
1.456,   7.408e-3
1.458,   8.064e-3
1.460,   8.917e-3
1.462,   9.622e-3
1.464,   9.957e-3
1.466,   1.007e-2
1.468,   1.007e-2
1.470,   1.007e-2
1.472,   1.007e-2
1.474,   1.007e-2
1.476,   1.007e-2
1.477,   1.007e-2