File: Experimental Records, Raw Data, and Supplementary Notes and Figures/batch5/final500/B5_BEST_500_#1_Full(#10)-216mV.txt
June 9, 2023   14:38:58
Linear Sweep Voltammetry
File: d:\current work\al_oer\electrochemical test data\batch 5\500\B5_BEST_500_#1_Full(#10)-216mV.txt
Data Source:  Experiment
Instrument Model:  CHI660E
Header:
Note:

Init E (V) = 0.897

Final E (V) = 1.497

Scan Rate (V/s) = 0.010
Sample Interval (V) = 0.001
Quiet Time (sec) = 2
Sensitivity (A/V) = 0.001
Comp R (ohm) = 4.3

Results:

Channel 1:

Potential/V, Current/A
0.897,   3.547e-4
0.900,   4.149e-4
0.903,   4.121e-4
0.906,   4.032e-4
0.909,   3.994e-4
0.912,   4.013e-4
0.915,   3.839e-4
0.918,   3.831e-4
0.921,   3.774e-4
0.924,   3.760e-4
0.927,   3.691e-4
0.930,   3.637e-4
0.933,   3.625e-4
0.936,   3.595e-4
0.939,   3.524e-4
0.942,   3.563e-4
0.945,   3.489e-4
0.948,   3.464e-4
0.951,   3.415e-4
0.954,   3.353e-4
0.957,   3.294e-4
0.960,   3.280e-4
0.963,   3.279e-4
0.966,   3.298e-4
0.969,   3.306e-4
0.972,   3.296e-4
0.975,   3.321e-4
0.978,   3.327e-4
0.981,   3.349e-4
0.984,   3.291e-4
0.987,   3.262e-4
0.990,   3.217e-4
0.993,   3.153e-4
0.996,   3.147e-4
0.999,   3.143e-4
1.002,   3.176e-4
1.005,   3.161e-4
1.008,   3.133e-4
1.011,   3.115e-4
1.014,   3.147e-4
1.017,   3.217e-4
1.020,   3.257e-4
1.023,   3.279e-4
1.026,   3.274e-4
1.029,   3.227e-4
1.032,   3.175e-4
1.035,   3.107e-4
1.038,   3.120e-4
1.041,   3.089e-4
1.044,   3.093e-4
1.047,   3.081e-4
1.050,   3.072e-4
1.053,   3.135e-4
1.056,   3.197e-4
1.059,   3.211e-4
1.062,   3.224e-4
1.065,   3.264e-4
1.068,   3.249e-4
1.071,   3.191e-4
1.074,   3.138e-4
1.077,   3.129e-4
1.080,   3.157e-4
1.083,   3.205e-4
1.086,   3.200e-4
1.089,   3.221e-4
1.092,   3.244e-4
1.095,   3.262e-4
1.098,   3.302e-4
1.101,   3.283e-4
1.104,   3.348e-4
1.107,   3.345e-4
1.110,   3.307e-4
1.113,   3.280e-4
1.116,   3.274e-4
1.119,   3.261e-4
1.122,   3.329e-4
1.125,   3.328e-4
1.128,   3.360e-4
1.131,   3.359e-4
1.134,   3.381e-4
1.137,   3.354e-4
1.140,   3.417e-4
1.143,   3.452e-4
1.146,   3.503e-4
1.149,   3.509e-4
1.152,   3.500e-4
1.155,   3.448e-4
1.158,   3.423e-4
1.161,   3.518e-4
1.164,   3.555e-4
1.167,   3.571e-4
1.170,   3.609e-4
1.173,   3.531e-4
1.176,   3.571e-4
1.179,   3.524e-4
1.182,   3.618e-4
1.185,   3.564e-4
1.188,   3.603e-4
1.191,   3.605e-4
1.194,   3.629e-4
1.197,   3.654e-4
1.200,   3.765e-4
1.203,   3.852e-4
1.206,   3.850e-4
1.209,   3.866e-4
1.212,   3.807e-4
1.215,   3.762e-4
1.218,   3.750e-4
1.221,   3.765e-4
1.224,   3.763e-4
1.227,   3.860e-4
1.230,   3.901e-4
1.233,   3.927e-4
1.236,   3.908e-4
1.239,   3.879e-4
1.242,   3.909e-4
1.245,   3.890e-4
1.248,   3.899e-4
1.251,   3.913e-4
1.254,   3.933e-4
1.257,   4.004e-4
1.260,   4.091e-4
1.263,   4.099e-4
1.266,   4.264e-4
1.269,   4.330e-4
1.272,   4.304e-4
1.275,   4.247e-4
1.278,   4.146e-4
1.281,   4.171e-4
1.284,   4.245e-4
1.287,   4.263e-4
1.290,   4.290e-4
1.293,   4.278e-4
1.296,   4.304e-4
1.299,   4.346e-4
1.302,   4.510e-4
1.305,   4.580e-4
1.308,   4.678e-4
1.311,   4.740e-4
1.314,   4.641e-4
1.317,   4.717e-4
1.320,   4.657e-4
1.323,   4.630e-4
1.326,   4.669e-4
1.329,   4.755e-4
1.332,   4.779e-4
1.335,   4.835e-4
1.338,   4.867e-4
1.341,   4.977e-4
1.344,   5.095e-4
1.347,   5.145e-4
1.350,   5.219e-4
1.353,   5.180e-4
1.356,   5.191e-4
1.359,   5.096e-4
1.362,   5.077e-4
1.365,   5.076e-4
1.368,   5.133e-4
1.371,   5.238e-4
1.374,   5.302e-4
1.377,   5.364e-4
1.380,   5.532e-4
1.383,   5.652e-4
1.386,   5.774e-4
1.389,   5.892e-4
1.392,   5.920e-4
1.395,   6.060e-4
1.398,   6.143e-4
1.401,   6.188e-4
1.404,   6.343e-4
1.407,   6.498e-4
1.410,   6.906e-4
1.413,   7.226e-4
1.416,   7.505e-4
1.419,   7.992e-4
1.422,   8.509e-4
1.425,   9.168e-4
1.428,   9.914e-4
1.431,   1.070e-3
1.434,   1.151e-3
1.437,   1.271e-3
1.440,   1.411e-3
1.443,   1.606e-3
1.446,   1.829e-3
1.449,   2.105e-3
1.452,   2.469e-3
1.455,   2.890e-3
1.458,   3.350e-3
1.461,   3.872e-3
1.464,   4.392e-3
1.467,   4.955e-3
1.470,   5.572e-3
1.473,   6.304e-3
1.476,   7.095e-3
1.479,   7.850e-3
1.482,   8.925e-3
1.485,   9.635e-3
1.488,   1.002e-2
1.491,   1.007e-2
1.494,   1.007e-2
1.497,   1.007e-2