File: Experimental Records, Raw Data, and Supplementary Notes and Figures/batch5/final500/B5_BEST_500_#1_Full(#4)-193mV.txt
June 9, 2023   11:52:00
Linear Sweep Voltammetry
File: d:\current work\al_oer\electrochemical test data\batch 5\500\B5_BEST_500_#1_Full(#4)-193mV.txt
Data Source:  Experiment
Instrument Model:  CHI660E
Header:
Note:

Init E (V) = 0.897

Final E (V) = 1.502

Scan Rate (V/s) = 0.010
Sample Interval (V) = 0.001
Quiet Time (sec) = 2
Sensitivity (A/V) = 0.001
Comp R (ohm) = 4.0

Results:

Channel 1:

Potential/V, Current/A
0.897,   5.540e-4
0.900,   7.506e-4
0.903,   7.386e-4
0.906,   7.142e-4
0.909,   6.982e-4
0.912,   6.951e-4
0.915,   6.958e-4
0.918,   7.107e-4
0.921,   7.124e-4
0.924,   6.971e-4
0.927,   6.832e-4
0.930,   6.501e-4
0.933,   6.216e-4
0.936,   6.219e-4
0.939,   6.061e-4
0.942,   5.970e-4
0.945,   5.893e-4
0.948,   5.958e-4
0.951,   5.865e-4
0.954,   6.070e-4
0.957,   6.096e-4
0.960,   6.003e-4
0.963,   5.916e-4
0.966,   5.799e-4
0.969,   5.724e-4
0.972,   5.666e-4
0.975,   5.588e-4
0.978,   5.507e-4
0.981,   5.520e-4
0.984,   5.527e-4
0.987,   5.658e-4
0.990,   5.782e-4
0.993,   5.814e-4
0.996,   5.764e-4
0.999,   5.575e-4
1.002,   5.434e-4
1.005,   5.397e-4
1.008,   5.302e-4
1.011,   5.285e-4
1.014,   5.285e-4
1.017,   5.229e-4
1.020,   5.324e-4
1.023,   5.440e-4
1.026,   5.556e-4
1.029,   5.589e-4
1.032,   5.550e-4
1.035,   5.375e-4
1.038,   5.284e-4
1.041,   5.255e-4
1.044,   5.226e-4
1.047,   5.150e-4
1.050,   5.131e-4
1.053,   5.198e-4
1.056,   5.299e-4
1.059,   5.402e-4
1.062,   5.522e-4
1.065,   5.507e-4
1.068,   5.468e-4
1.071,   5.365e-4
1.074,   5.320e-4
1.077,   5.254e-4
1.080,   5.234e-4
1.083,   5.186e-4
1.086,   5.219e-4
1.089,   5.250e-4
1.092,   5.361e-4
1.095,   5.603e-4
1.098,   5.646e-4
1.101,   5.639e-4
1.104,   5.641e-4
1.107,   5.473e-4
1.110,   5.464e-4
1.113,   5.426e-4
1.116,   5.616e-4
1.119,   5.863e-4
1.122,   5.732e-4
1.125,   5.626e-4
1.128,   5.440e-4
1.131,   5.680e-4
1.134,   5.964e-4
1.137,   5.936e-4
1.140,   5.717e-4
1.143,   5.675e-4
1.146,   5.644e-4
1.149,   5.918e-4
1.152,   6.030e-4
1.155,   5.900e-4
1.158,   5.852e-4
1.161,   5.772e-4
1.164,   5.968e-4
1.167,   6.287e-4
1.170,   6.250e-4
1.173,   6.106e-4
1.176,   6.015e-4
1.179,   6.017e-4
1.182,   6.290e-4
1.185,   6.485e-4
1.188,   6.374e-4
1.191,   6.281e-4
1.194,   6.263e-4
1.197,   6.359e-4
1.200,   6.714e-4
1.203,   6.829e-4
1.206,   6.832e-4
1.209,   6.554e-4
1.212,   6.498e-4
1.215,   6.764e-4
1.218,   7.076e-4
1.221,   7.135e-4
1.224,   6.957e-4
1.227,   6.668e-4
1.230,   7.009e-4
1.233,   7.420e-4
1.236,   7.667e-4
1.239,   7.399e-4
1.242,   7.052e-4
1.245,   7.120e-4
1.248,   7.569e-4
1.251,   7.942e-4
1.254,   7.897e-4
1.257,   7.448e-4
1.260,   7.363e-4
1.263,   7.589e-4
1.266,   8.063e-4
1.269,   8.296e-4
1.272,   7.994e-4
1.275,   7.728e-4
1.278,   7.922e-4
1.281,   8.221e-4
1.284,   8.546e-4
1.287,   8.623e-4
1.290,   8.221e-4
1.293,   8.061e-4
1.296,   8.477e-4
1.299,   8.681e-4
1.302,   8.779e-4
1.305,   8.686e-4
1.308,   8.262e-4
1.311,   8.331e-4
1.314,   8.670e-4
1.317,   9.074e-4
1.320,   9.107e-4
1.323,   8.659e-4
1.326,   8.414e-4
1.329,   8.911e-4
1.332,   9.052e-4
1.335,   9.532e-4
1.338,   9.146e-4
1.341,   8.657e-4
1.344,   8.861e-4
1.347,   9.566e-4
1.350,   9.786e-4
1.353,   9.631e-4
1.356,   9.103e-4
1.359,   9.077e-4
1.362,   9.678e-4
1.365,   1.018e-3
1.368,   1.020e-3
1.371,   9.732e-4
1.374,   9.607e-4
1.377,   1.014e-3
1.380,   1.087e-3
1.383,   1.122e-3
1.386,   1.086e-3
1.389,   1.061e-3
1.392,   1.119e-3
1.395,   1.217e-3
1.398,   1.280e-3
1.401,   1.275e-3
1.404,   1.270e-3
1.407,   1.305e-3
1.410,   1.469e-3
1.413,   1.525e-3
1.416,   1.633e-3
1.419,   1.713e-3
1.422,   1.750e-3
1.425,   1.946e-3
1.428,   2.196e-3
1.431,   2.434e-3
1.434,   2.565e-3
1.437,   2.762e-3
1.440,   3.114e-3
1.443,   3.692e-3
1.446,   4.230e-3
1.449,   4.623e-3
1.452,   5.040e-3
1.455,   5.716e-3
1.458,   6.858e-3
1.461,   7.883e-3
1.464,   8.511e-3
1.467,   9.030e-3
1.470,   9.241e-3
1.473,   9.719e-3
1.476,   1.005e-2
1.479,   1.007e-2
1.482,   1.007e-2
1.485,   1.007e-2
1.488,   1.007e-2
1.491,   1.007e-2
1.494,   1.007e-2
1.497,   1.007e-2
1.500,   1.007e-2
1.502,   1.007e-2