File: Experimental Records, Raw Data, and Supplementary Notes and Figures/batch5/final500/B5_BEST_500_#1_High_Quality(#22)-215mV.txt
June 9, 2023   15:02:44
Linear Sweep Voltammetry
File: d:\current work\al_oer\electrochemical test data\batch 5\500\B5_BEST_500_#1_High_Quality(#22)-215mV.txt
Data Source:  Experiment
Instrument Model:  CHI660E
Header:
Note:

Init E (V) = 0.888

Final E (V) = 1.495

Scan Rate (V/s) = 0.010
Sample Interval (V) = 0.001
Quiet Time (sec) = 2
Sensitivity (A/V) = 0.001
Comp R (ohm) = 4.8

Results:

Channel 1:

Potential/V, Current/A
0.888,   2.342e-4
0.891,   2.609e-4
0.894,   2.567e-4
0.897,   2.544e-4
0.900,   2.525e-4
0.903,   2.519e-4
0.906,   2.501e-4
0.909,   2.505e-4
0.912,   2.477e-4
0.915,   2.445e-4
0.918,   2.403e-4
0.921,   2.360e-4
0.924,   2.313e-4
0.927,   2.286e-4
0.930,   2.256e-4
0.933,   2.241e-4
0.936,   2.242e-4
0.939,   2.221e-4
0.942,   2.204e-4
0.945,   2.183e-4
0.948,   2.156e-4
0.951,   2.122e-4
0.954,   2.094e-4
0.957,   2.045e-4
0.960,   2.036e-4
0.963,   2.018e-4
0.966,   2.015e-4
0.969,   2.016e-4
0.972,   2.001e-4
0.975,   2.014e-4
0.978,   2.030e-4
0.981,   2.016e-4
0.984,   2.005e-4
0.987,   1.988e-4
0.990,   1.969e-4
0.993,   1.952e-4
0.996,   1.944e-4
0.999,   1.947e-4
1.002,   1.948e-4
1.005,   1.954e-4
1.008,   1.960e-4
1.011,   1.965e-4
1.014,   1.953e-4
1.017,   1.927e-4
1.020,   1.900e-4
1.023,   1.876e-4
1.026,   1.857e-4
1.029,   1.856e-4
1.032,   1.837e-4
1.035,   1.863e-4
1.038,   1.886e-4
1.041,   1.904e-4
1.044,   1.916e-4
1.047,   1.927e-4
1.050,   1.930e-4
1.053,   1.922e-4
1.056,   1.920e-4
1.059,   1.900e-4
1.062,   1.901e-4
1.065,   1.907e-4
1.068,   1.893e-4
1.071,   1.921e-4
1.074,   1.931e-4
1.077,   1.929e-4
1.080,   1.931e-4
1.083,   1.921e-4
1.086,   1.911e-4
1.089,   1.892e-4
1.092,   1.878e-4
1.095,   1.883e-4
1.098,   1.878e-4
1.101,   1.903e-4
1.104,   1.941e-4
1.107,   1.972e-4
1.110,   2.000e-4
1.113,   2.030e-4
1.116,   2.023e-4
1.119,   2.016e-4
1.122,   2.006e-4
1.125,   2.001e-4
1.128,   1.999e-4
1.131,   2.012e-4
1.134,   2.028e-4
1.137,   2.053e-4
1.140,   2.076e-4
1.143,   2.091e-4
1.146,   2.097e-4
1.149,   2.094e-4
1.152,   2.078e-4
1.155,   2.055e-4
1.158,   2.048e-4
1.161,   2.043e-4
1.164,   2.024e-4
1.167,   2.079e-4
1.170,   2.129e-4
1.173,   2.186e-4
1.176,   2.248e-4
1.179,   2.296e-4
1.182,   2.321e-4
1.185,   2.302e-4
1.188,   2.288e-4
1.191,   2.283e-4
1.194,   2.260e-4
1.197,   2.288e-4
1.200,   2.308e-4
1.203,   2.363e-4
1.206,   2.392e-4
1.209,   2.429e-4
1.212,   2.439e-4
1.215,   2.436e-4
1.218,   2.407e-4
1.221,   2.362e-4
1.224,   2.337e-4
1.227,   2.330e-4
1.230,   2.372e-4
1.233,   2.441e-4
1.236,   2.560e-4
1.239,   2.670e-4
1.242,   2.767e-4
1.245,   2.832e-4
1.248,   2.866e-4
1.251,   2.797e-4
1.254,   2.728e-4
1.257,   2.673e-4
1.260,   2.669e-4
1.263,   2.663e-4
1.266,   2.778e-4
1.269,   2.875e-4
1.272,   2.963e-4
1.275,   2.985e-4
1.278,   2.981e-4
1.281,   2.940e-4
1.284,   2.845e-4
1.287,   2.721e-4
1.290,   2.688e-4
1.293,   2.820e-4
1.296,   2.918e-4
1.299,   3.122e-4
1.302,   3.192e-4
1.305,   3.291e-4
1.308,   3.309e-4
1.311,   3.185e-4
1.314,   3.106e-4
1.317,   2.995e-4
1.320,   2.949e-4
1.323,   2.762e-4
1.326,   2.874e-4
1.329,   3.217e-4
1.332,   3.530e-4
1.335,   3.740e-4
1.338,   3.900e-4
1.341,   3.888e-4
1.344,   3.628e-4
1.347,   3.356e-4
1.350,   3.049e-4
1.353,   3.088e-4
1.356,   3.132e-4
1.359,   3.371e-4
1.362,   3.599e-4
1.365,   3.852e-4
1.368,   3.898e-4
1.371,   3.873e-4
1.374,   3.705e-4
1.377,   3.495e-4
1.380,   3.406e-4
1.383,   3.247e-4
1.386,   3.682e-4
1.389,   3.723e-4
1.392,   4.088e-4
1.395,   4.448e-4
1.398,   4.889e-4
1.401,   5.218e-4
1.404,   5.465e-4
1.407,   5.630e-4
1.410,   5.735e-4
1.413,   5.982e-4
1.416,   6.308e-4
1.419,   6.759e-4
1.422,   7.420e-4
1.425,   8.296e-4
1.428,   9.218e-4
1.431,   1.041e-3
1.434,   1.172e-3
1.437,   1.324e-3
1.440,   1.499e-3
1.443,   1.698e-3
1.446,   1.927e-3
1.449,   2.237e-3
1.452,   2.621e-3
1.455,   3.103e-3
1.458,   3.694e-3
1.461,   4.412e-3
1.464,   5.180e-3
1.467,   5.956e-3
1.470,   6.781e-3
1.473,   7.660e-3
1.476,   8.544e-3
1.479,   9.308e-3
1.482,   9.929e-3
1.485,   1.007e-2
1.488,   1.007e-2
1.491,   1.007e-2
1.494,   1.007e-2
1.495,   1.007e-2