File: Experimental Records, Raw Data, and Supplementary Notes and Figures/batch1/final400/B1_BEST_400_#10_Full-234mV.txt
Dec. 6, 2022   16:53:31
Linear Sweep Voltammetry
File: d:\current work\al_oer\electrochemical test data\batch 1\400\B1_BEST_400_#10_Full-234mV.txt
Data Source:  Experiment
Instrument Model:  CHI660E
Header:
Note:

Init E (V) = 1.099

Final E (V) = 1.498

Scan Rate (V/s) = 0.010
Sample Interval (V) = 0.001
Quiet Time (sec) = 2
Sensitivity (A/V) = 0.001
Comp R (ohm) = 4.7

Results:

Channel 1:

Potential/V, Current/A
1.099,   6.898e-7
1.101,   1.328e-5
1.103,   1.490e-5
1.105,   1.570e-5
1.107,   1.642e-5
1.109,   1.696e-5
1.111,   1.737e-5
1.113,   1.771e-5
1.115,   1.801e-5
1.117,   1.843e-5
1.119,   1.871e-5
1.121,   1.894e-5
1.123,   1.918e-5
1.125,   1.946e-5
1.127,   1.966e-5
1.129,   1.988e-5
1.131,   2.004e-5
1.133,   2.038e-5
1.135,   2.058e-5
1.137,   2.073e-5
1.139,   2.099e-5
1.141,   2.121e-5
1.143,   2.142e-5
1.145,   2.162e-5
1.147,   2.173e-5
1.149,   2.201e-5
1.151,   2.221e-5
1.153,   2.228e-5
1.155,   2.252e-5
1.157,   2.279e-5
1.159,   2.303e-5
1.161,   2.315e-5
1.163,   2.332e-5
1.165,   2.360e-5
1.167,   2.379e-5
1.169,   2.393e-5
1.171,   2.417e-5
1.173,   2.437e-5
1.175,   2.457e-5
1.177,   2.465e-5
1.179,   2.490e-5
1.181,   2.515e-5
1.183,   2.542e-5
1.185,   2.550e-5
1.187,   2.563e-5
1.189,   2.591e-5
1.191,   2.611e-5
1.193,   2.626e-5
1.195,   2.640e-5
1.197,   2.670e-5
1.199,   2.687e-5
1.201,   2.698e-5
1.203,   2.716e-5
1.205,   2.738e-5
1.207,   2.759e-5
1.209,   2.770e-5
1.211,   2.786e-5
1.213,   2.804e-5
1.215,   2.821e-5
1.217,   2.834e-5
1.219,   2.845e-5
1.221,   2.869e-5
1.223,   2.890e-5
1.225,   2.894e-5
1.227,   2.901e-5
1.229,   2.926e-5
1.231,   2.939e-5
1.233,   2.950e-5
1.235,   2.966e-5
1.237,   2.980e-5
1.239,   2.995e-5
1.241,   3.004e-5
1.243,   3.011e-5
1.245,   3.032e-5
1.247,   3.048e-5
1.249,   3.049e-5
1.251,   3.059e-5
1.253,   3.078e-5
1.255,   3.091e-5
1.257,   3.099e-5
1.259,   3.106e-5
1.261,   3.133e-5
1.263,   3.141e-5
1.265,   3.144e-5
1.267,   3.151e-5
1.269,   3.174e-5
1.271,   3.183e-5
1.273,   3.194e-5
1.275,   3.198e-5
1.277,   3.216e-5
1.279,   3.228e-5
1.281,   3.232e-5
1.283,   3.240e-5
1.285,   3.264e-5
1.287,   3.274e-5
1.289,   3.277e-5
1.291,   3.282e-5
1.293,   3.312e-5
1.295,   3.322e-5
1.297,   3.325e-5
1.299,   3.338e-5
1.301,   3.357e-5
1.303,   3.372e-5
1.305,   3.375e-5
1.307,   3.387e-5
1.309,   3.408e-5
1.311,   3.429e-5
1.313,   3.431e-5
1.315,   3.440e-5
1.317,   3.467e-5
1.319,   3.486e-5
1.321,   3.490e-5
1.323,   3.505e-5
1.325,   3.542e-5
1.327,   3.554e-5
1.329,   3.565e-5
1.331,   3.585e-5
1.333,   3.613e-5
1.335,   3.636e-5
1.337,   3.658e-5
1.339,   3.667e-5
1.341,   3.710e-5
1.343,   3.733e-5
1.345,   3.752e-5
1.347,   3.776e-5
1.349,   3.822e-5
1.351,   3.856e-5
1.353,   3.883e-5
1.355,   3.924e-5
1.357,   3.986e-5
1.359,   4.028e-5
1.361,   4.072e-5
1.363,   4.137e-5
1.365,   4.206e-5
1.367,   4.278e-5
1.369,   4.353e-5
1.371,   4.442e-5
1.373,   4.563e-5
1.375,   4.686e-5
1.377,   4.820e-5
1.379,   4.976e-5
1.381,   5.171e-5
1.383,   5.383e-5
1.385,   5.620e-5
1.387,   5.906e-5
1.389,   6.247e-5
1.391,   6.626e-5
1.393,   7.060e-5
1.395,   7.577e-5
1.397,   8.172e-5
1.399,   8.852e-5
1.401,   9.638e-5
1.403,   1.052e-4
1.405,   1.155e-4
1.407,   1.273e-4
1.409,   1.403e-4
1.411,   1.553e-4
1.413,   1.723e-4
1.415,   1.912e-4
1.417,   2.122e-4
1.419,   2.358e-4
1.421,   2.623e-4
1.423,   2.913e-4
1.425,   3.233e-4
1.427,   3.588e-4
1.429,   3.973e-4
1.431,   4.397e-4
1.433,   4.855e-4
1.435,   5.353e-4
1.437,   5.897e-4
1.439,   6.484e-4
1.441,   7.118e-4
1.443,   7.802e-4
1.445,   8.538e-4
1.447,   9.330e-4
1.449,   1.018e-3
1.451,   1.109e-3
1.453,   1.206e-3
1.455,   1.310e-3
1.457,   1.420e-3
1.459,   1.538e-3
1.461,   1.663e-3
1.463,   1.796e-3
1.465,   1.938e-3
1.467,   2.087e-3
1.469,   2.245e-3
1.471,   2.412e-3
1.473,   2.588e-3
1.475,   2.773e-3
1.477,   2.967e-3
1.479,   3.172e-3
1.481,   3.385e-3
1.483,   3.608e-3
1.485,   3.840e-3
1.487,   4.083e-3
1.489,   4.335e-3
1.491,   4.597e-3
1.493,   4.868e-3
1.495,   5.150e-3
1.497,   5.441e-3
1.498,   5.590e-3