File: Experimental Records, Raw Data, and Supplementary Notes and Figures/batch1/final400/B1_BEST_400_#7_High_Quality-263mV.txt
Dec. 8, 2022   16:16:24
Linear Sweep Voltammetry
File: d:\current work\al_oer\electrochemical test data\batch 1\400\B1_BEST_400_#7_High_Quality-263mV.txt
Data Source:  Experiment
Instrument Model:  CHI660E
Header:
Note:

Init E (V) = 1.091

Final E (V) = 1.567

Scan Rate (V/s) = 0.010
Sample Interval (V) = 0.001
Quiet Time (sec) = 2
Sensitivity (A/V) = 0.001
Comp R (ohm) = 5.1

Results:

Channel 1:

Potential/V, Current/A
1.091,   1.342e-4
1.093,   1.170e-4
1.095,   1.021e-4
1.097,   9.077e-5
1.099,   8.180e-5
1.101,   7.430e-5
1.103,   6.816e-5
1.105,   6.302e-5
1.107,   5.867e-5
1.109,   5.506e-5
1.111,   5.194e-5
1.113,   4.925e-5
1.115,   4.677e-5
1.117,   4.475e-5
1.119,   4.289e-5
1.121,   4.130e-5
1.123,   3.979e-5
1.125,   3.854e-5
1.127,   3.743e-5
1.129,   3.644e-5
1.131,   3.553e-5
1.133,   3.471e-5
1.135,   3.386e-5
1.137,   3.316e-5
1.139,   3.257e-5
1.141,   3.208e-5
1.143,   3.153e-5
1.145,   3.109e-5
1.147,   3.065e-5
1.149,   3.033e-5
1.151,   2.995e-5
1.153,   2.963e-5
1.155,   2.934e-5
1.157,   2.915e-5
1.159,   2.889e-5
1.161,   2.861e-5
1.163,   2.847e-5
1.165,   2.829e-5
1.167,   2.817e-5
1.169,   2.798e-5
1.171,   2.785e-5
1.173,   2.778e-5
1.175,   2.767e-5
1.177,   2.758e-5
1.179,   2.755e-5
1.181,   2.754e-5
1.183,   2.747e-5
1.185,   2.737e-5
1.187,   2.736e-5
1.189,   2.732e-5
1.191,   2.729e-5
1.193,   2.732e-5
1.195,   2.734e-5
1.197,   2.735e-5
1.199,   2.739e-5
1.201,   2.738e-5
1.203,   2.742e-5
1.205,   2.740e-5
1.207,   2.741e-5
1.209,   2.743e-5
1.211,   2.747e-5
1.213,   2.757e-5
1.215,   2.769e-5
1.217,   2.765e-5
1.219,   2.769e-5
1.221,   2.777e-5
1.223,   2.782e-5
1.225,   2.788e-5
1.227,   2.796e-5
1.229,   2.803e-5
1.231,   2.809e-5
1.233,   2.815e-5
1.235,   2.818e-5
1.237,   2.824e-5
1.239,   2.837e-5
1.241,   2.843e-5
1.243,   2.854e-5
1.245,   2.869e-5
1.247,   2.873e-5
1.249,   2.881e-5
1.251,   2.890e-5
1.253,   2.902e-5
1.255,   2.904e-5
1.257,   2.915e-5
1.259,   2.927e-5
1.261,   2.937e-5
1.263,   2.951e-5
1.265,   2.957e-5
1.267,   2.969e-5
1.269,   2.983e-5
1.271,   2.989e-5
1.273,   2.999e-5
1.275,   3.005e-5
1.277,   3.024e-5
1.279,   3.036e-5
1.281,   3.050e-5
1.283,   3.054e-5
1.285,   3.068e-5
1.287,   3.081e-5
1.289,   3.086e-5
1.291,   3.099e-5
1.293,   3.117e-5
1.295,   3.130e-5
1.297,   3.140e-5
1.299,   3.154e-5
1.301,   3.170e-5
1.303,   3.189e-5
1.305,   3.199e-5
1.307,   3.215e-5
1.309,   3.230e-5
1.311,   3.250e-5
1.313,   3.268e-5
1.315,   3.284e-5
1.317,   3.307e-5
1.319,   3.325e-5
1.321,   3.348e-5
1.323,   3.356e-5
1.325,   3.385e-5
1.327,   3.410e-5
1.329,   3.447e-5
1.331,   3.455e-5
1.333,   3.481e-5
1.335,   3.507e-5
1.337,   3.536e-5
1.339,   3.560e-5
1.341,   3.586e-5
1.343,   3.621e-5
1.345,   3.644e-5
1.347,   3.680e-5
1.349,   3.724e-5
1.351,   3.757e-5
1.353,   3.792e-5
1.355,   3.847e-5
1.357,   3.888e-5
1.359,   3.948e-5
1.361,   4.006e-5
1.363,   4.075e-5
1.365,   4.161e-5
1.367,   4.244e-5
1.369,   4.351e-5
1.371,   4.452e-5
1.373,   4.584e-5
1.375,   4.722e-5
1.377,   4.884e-5
1.379,   5.060e-5
1.381,   5.280e-5
1.383,   5.519e-5
1.385,   5.792e-5
1.387,   6.104e-5
1.389,   6.456e-5
1.391,   6.858e-5
1.393,   7.304e-5
1.395,   7.820e-5
1.397,   8.390e-5
1.399,   9.027e-5
1.401,   9.733e-5
1.403,   1.051e-4
1.405,   1.137e-4
1.407,   1.233e-4
1.409,   1.337e-4
1.411,   1.450e-4
1.413,   1.576e-4
1.415,   1.711e-4
1.417,   1.856e-4
1.419,   2.013e-4
1.421,   2.182e-4
1.423,   2.364e-4
1.425,   2.561e-4
1.427,   2.768e-4
1.429,   2.989e-4
1.431,   3.228e-4
1.433,   3.482e-4
1.435,   3.753e-4
1.437,   4.039e-4
1.439,   4.344e-4
1.441,   4.662e-4
1.443,   4.992e-4
1.445,   5.349e-4
1.447,   5.720e-4
1.449,   6.107e-4
1.451,   6.516e-4
1.453,   6.947e-4
1.455,   7.396e-4
1.457,   7.863e-4
1.459,   8.321e-4
1.461,   8.815e-4
1.463,   9.319e-4
1.465,   9.864e-4
1.467,   1.044e-3
1.469,   1.101e-3
1.471,   1.161e-3
1.473,   1.223e-3
1.475,   1.288e-3
1.477,   1.352e-3
1.479,   1.420e-3
1.481,   1.486e-3
1.483,   1.557e-3
1.485,   1.632e-3
1.487,   1.705e-3
1.489,   1.779e-3
1.491,   1.857e-3
1.493,   1.934e-3
1.495,   2.012e-3
1.497,   2.092e-3
1.499,   2.170e-3
1.501,   2.248e-3
1.503,   2.329e-3
1.505,   2.415e-3
1.507,   2.494e-3
1.509,   2.572e-3
1.511,   2.654e-3
1.513,   2.733e-3
1.515,   2.808e-3
1.517,   2.888e-3
1.519,   2.965e-3
1.521,   3.042e-3
1.523,   3.116e-3
1.525,   3.189e-3
1.527,   3.264e-3
1.529,   3.335e-3
1.531,   3.403e-3
1.533,   3.472e-3
1.535,   3.543e-3
1.537,   3.611e-3
1.539,   3.677e-3
1.541,   3.731e-3
1.543,   3.792e-3
1.545,   3.851e-3
1.547,   3.910e-3
1.549,   3.961e-3
1.551,   4.017e-3
1.553,   4.068e-3
1.555,   4.117e-3
1.557,   4.164e-3
1.559,   4.204e-3
1.561,   4.247e-3
1.563,   4.284e-3
1.565,   4.321e-3
1.567,   4.355e-3