File: Experimental Records, Raw Data, and Supplementary Notes and Figures/batch1/final400/B1_VARIANCE_400_#2_High_Quality-337mV.txt
Dec. 6, 2022   15:29:17
Linear Sweep Voltammetry
File: d:\current work\al_oer\electrochemical test data\batch 1\400\B1_VARIANCE_400_#2_High_Quality-337mV
Data Source:  Experiment
Instrument Model:  CHI660E
Header:
Note:

Init E (V) = 1.087
Final E (V) = 1.585
Scan Rate (V/s) = 0.010
Sample Interval (V) = 0.001
Quiet Time (sec) = 2
Sensitivity (A/V) = 0.001

Results:

Channel 1:

Potential/V, Current/A
1.086,	8.10E-06
1.088,	0.00001057
1.09,	0.00001135
1.092,	0.00001187
1.094,	0.00001235
1.096,	0.00001275
1.098,	0.00001308
1.1,	0.0000134
1.102,	0.00001368
1.104,	0.000014
1.106,	0.00001422
1.108,	0.00001447
1.11,	0.00001467
1.112,	0.00001491
1.114,	0.00001515
1.116,	0.00001529
1.118,	0.00001549
1.12,	0.0000157
1.122,	0.0000159
1.124,	0.00001607
1.126,	0.00001624
1.128,	0.00001644
1.13,	0.0000166
1.132,	0.00001675
1.134,	0.00001693
1.136,	0.00001712
1.138,	0.00001729
1.14,	0.00001742
1.142,	0.00001758
1.144,	0.00001776
1.146,	0.00001795
1.148,	0.00001811
1.15,	0.00001829
1.152,	0.00001846
1.154,	0.00001865
1.156,	0.00001879
1.158,	0.00001898
1.16,	0.00001915
1.162,	0.00001931
1.164,	0.00001947
1.166,	0.00001962
1.168,	0.00001983
1.17,	0.00002002
1.172,	0.00002016
1.174,	0.0000203
1.176,	0.00002051
1.178,	0.00002068
1.18,	0.00002082
1.182,	0.00002098
1.184,	0.00002121
1.186,	0.00002135
1.188,	0.00002151
1.19,	0.00002167
1.192,	0.00002183
1.194,	0.00002201
1.196,	0.00002218
1.198,	0.00002231
1.2,	0.00002249
1.202,	0.00002268
1.204,	0.00002283
1.206,	0.00002297
1.208,	0.00002315
1.21,	0.00002335
1.212,	0.00002353
1.214,	0.00002365
1.216,	0.00002385
1.218,	0.00002401
1.22,	0.00002417
1.222,	0.00002434
1.224,	0.00002454
1.226,	0.00002472
1.228,	0.00002487
1.23,	0.00002503
1.232,	0.00002524
1.234,	0.00002542
1.236,	0.00002563
1.238,	0.0000258
1.24,	0.00002597
1.242,	0.00002617
1.244,	0.00002631
1.246,	0.0000265
1.248,	0.00002676
1.25,	0.00002695
1.252,	0.00002714
1.254,	0.00002732
1.256,	0.00002758
1.258,	0.00002779
1.26,	0.00002802
1.262,	0.00002822
1.264,	0.00002843
1.266,	0.00002865
1.268,	0.00002892
1.27,	0.00002919
1.272,	0.00002941
1.274,	0.00002968
1.276,	0.00002996
1.278,	0.00003021
1.28,	0.00003051
1.282,	0.00003081
1.284,	0.00003103
1.286,	0.00003144
1.288,	0.00003166
1.29,	0.00003195
1.292,	0.0000323
1.294,	0.00003264
1.296,	0.00003295
1.298,	0.00003335
1.3,	0.00003368
1.302,	0.00003402
1.304,	0.00003445
1.306,	0.00003482
1.308,	0.0000352
1.31,	0.00003558
1.312,	0.00003603
1.314,	0.00003643
1.316,	0.00003684
1.318,	0.00003726
1.32,	0.00003773
1.322,	0.00003816
1.324,	0.0000386
1.326,	0.00003906
1.328,	0.00003959
1.33,	0.00004002
1.332,	0.00004046
1.334,	0.00004101
1.336,	0.00004151
1.338,	0.00004203
1.34,	0.00004259
1.342,	0.00004312
1.344,	0.00004365
1.346,	0.0000442
1.348,	0.00004475
1.35,	0.00004531
1.352,	0.00004591
1.354,	0.00004653
1.356,	0.00004713
1.358,	0.00004773
1.36,	0.00004837
1.362,	0.00004904
1.364,	0.00004977
1.366,	0.00005046
1.368,	0.00005115
1.37,	0.00005193
1.372,	0.00005273
1.374,	0.00005349
1.376,	0.00005441
1.378,	0.00005525
1.38,	0.00005619
1.382,	0.00005726
1.384,	0.00005833
1.386,	0.00005946
1.388,	0.00006064
1.39,	0.00006192
1.392,	0.00006331
1.394,	0.00006481
1.396,	0.00006639
1.398,	0.00006808
1.4,	0.00007002
1.402,	0.00007214
1.404,	0.00007428
1.406,	0.00007673
1.408,	0.00007937
1.41,	0.00008216
1.412,	0.0000852
1.414,	0.00008858
1.416,	0.00009212
1.418,	0.00009592
1.42,	0.00009997
1.422,	0.0001044
1.424,	0.0001091
1.426,	0.0001141
1.428,	0.0001196
1.43,	0.0001253
1.432,	0.0001315
1.434,	0.0001379
1.436,	0.0001446
1.438,	0.0001517
1.44,	0.0001594
1.442,	0.0001673
1.444,	0.0001755
1.446,	0.0001843
1.448,	0.0001973
1.45,	0.0002093
1.452,	0.0002208
1.454,	0.0002339
1.456,	0.0002469
1.458,	0.0002604
1.46,	0.0002742
1.462,	0.0002883
1.464,	0.000303
1.466,	0.0003184
1.468,	0.0003343
1.47,	0.0003506
1.472,	0.0003705
1.474,	0.0003939
1.476,	0.0004144
1.478,	0.0004294
1.48,	0.0004531
1.482,	0.0004763
1.484,	0.0004964
1.486,	0.0005217
1.488,	0.0005427
1.49,	0.0005738
1.492,	0.0005966
1.494,	0.0006263
1.496,	0.0006535
1.498,	0.0006924
1.5,	0.0007197
1.502,	0.0007369
1.504,	0.0007658
1.506,	0.0007943
1.508,	0.0008216
1.51,	0.0008546
1.512,	0.0009001
1.514,	0.0009254
1.516,	0.0009571
1.518,	0.0009947
1.52,	0.001028
1.522,	0.00107
1.524,	0.001101
1.526,	0.001121
1.528,	0.001167
1.53,	0.001205
1.532,	0.001242
1.534,	0.00128
1.536,	0.001318
1.538,	0.001359
1.54,	0.001396
1.542,	0.001436
1.544,	0.001472
1.546,	0.001514
1.548,	0.001551
1.55,	0.001591
1.552,	0.001627
1.554,	0.00167
1.556,	0.001709
1.558,	0.00175
1.56,	0.001789
1.562,	0.001829
1.564,	0.001871
1.566,	0.00192
1.568,	0.001959
1.57,	0.001999
1.572,	0.002047
1.574,	0.00209
1.576,	0.002127
1.578,	0.002181
1.58,	0.002219
1.582,	0.002263
1.584,	0.002305
1.585,	0.002327