File: Experimental Records, Raw Data, and Supplementary Notes and Figures/batch1/final400/B1_VARIANCE_400_#6_Full-277mV.txt
Dec. 6, 2022   15:57:47
Linear Sweep Voltammetry
File: d:\current work\al_oer\electrochemical test data\batch 1\400\B1_VARIANCE_400_#6_Full-277mV.txt
Data Source:  Experiment
Instrument Model:  CHI660E
Header:
Note:

Init E (V) = 1.091

Final E (V) = 1.566

Scan Rate (V/s) = 0.010
Sample Interval (V) = 0.001
Quiet Time (sec) = 2
Sensitivity (A/V) = 0.001
Comp R (ohm) = 4.6

Results:

Channel 1:
Ep = 1.052V
ip = 8.726e-5A
Ah = 7.677e-4C

Potential/V, Current/A
1.091,   3.660e-4
1.093,   3.238e-4
1.095,   2.835e-4
1.097,   2.514e-4
1.099,   2.259e-4
1.101,   2.056e-4
1.103,   1.892e-4
1.105,   1.757e-4
1.107,   1.646e-4
1.109,   1.555e-4
1.111,   1.480e-4
1.113,   1.416e-4
1.115,   1.362e-4
1.117,   1.320e-4
1.119,   1.283e-4
1.121,   1.251e-4
1.123,   1.226e-4
1.125,   1.206e-4
1.127,   1.189e-4
1.129,   1.174e-4
1.131,   1.163e-4
1.133,   1.156e-4
1.135,   1.150e-4
1.137,   1.145e-4
1.139,   1.142e-4
1.141,   1.142e-4
1.143,   1.143e-4
1.145,   1.145e-4
1.147,   1.147e-4
1.149,   1.152e-4
1.151,   1.159e-4
1.153,   1.164e-4
1.155,   1.171e-4
1.157,   1.181e-4
1.159,   1.190e-4
1.161,   1.199e-4
1.163,   1.210e-4
1.165,   1.223e-4
1.167,   1.234e-4
1.169,   1.247e-4
1.171,   1.261e-4
1.173,   1.276e-4
1.175,   1.293e-4
1.177,   1.309e-4
1.179,   1.325e-4
1.181,   1.346e-4
1.183,   1.366e-4
1.185,   1.385e-4
1.187,   1.406e-4
1.189,   1.431e-4
1.191,   1.454e-4
1.193,   1.478e-4
1.195,   1.503e-4
1.197,   1.530e-4
1.199,   1.559e-4
1.201,   1.588e-4
1.203,   1.615e-4
1.205,   1.646e-4
1.207,   1.677e-4
1.209,   1.706e-4
1.211,   1.735e-4
1.213,   1.767e-4
1.215,   1.798e-4
1.217,   1.824e-4
1.219,   1.851e-4
1.221,   1.880e-4
1.223,   1.904e-4
1.225,   1.925e-4
1.227,   1.948e-4
1.229,   1.966e-4
1.231,   1.982e-4
1.233,   1.995e-4
1.235,   2.005e-4
1.237,   2.015e-4
1.239,   2.021e-4
1.241,   2.023e-4
1.243,   2.021e-4
1.245,   2.020e-4
1.247,   2.016e-4
1.249,   2.007e-4
1.251,   1.997e-4
1.253,   1.990e-4
1.255,   1.976e-4
1.257,   1.959e-4
1.259,   1.944e-4
1.261,   1.930e-4
1.263,   1.913e-4
1.265,   1.897e-4
1.267,   1.877e-4
1.269,   1.862e-4
1.271,   1.844e-4
1.273,   1.827e-4
1.275,   1.808e-4
1.277,   1.795e-4
1.279,   1.781e-4
1.281,   1.765e-4
1.283,   1.749e-4
1.285,   1.742e-4
1.287,   1.729e-4
1.289,   1.717e-4
1.291,   1.708e-4
1.293,   1.701e-4
1.295,   1.694e-4
1.297,   1.683e-4
1.299,   1.676e-4
1.301,   1.675e-4
1.303,   1.670e-4
1.305,   1.663e-4
1.307,   1.660e-4
1.309,   1.662e-4
1.311,   1.660e-4
1.313,   1.655e-4
1.315,   1.654e-4
1.317,   1.662e-4
1.319,   1.659e-4
1.321,   1.657e-4
1.323,   1.657e-4
1.325,   1.662e-4
1.327,   1.663e-4
1.329,   1.665e-4
1.331,   1.663e-4
1.333,   1.670e-4
1.335,   1.673e-4
1.337,   1.671e-4
1.339,   1.672e-4
1.341,   1.681e-4
1.343,   1.683e-4
1.345,   1.684e-4
1.347,   1.683e-4
1.349,   1.692e-4
1.351,   1.695e-4
1.353,   1.696e-4
1.355,   1.703e-4
1.357,   1.709e-4
1.359,   1.715e-4
1.361,   1.717e-4
1.363,   1.721e-4
1.365,   1.730e-4
1.367,   1.740e-4
1.369,   1.742e-4
1.371,   1.747e-4
1.373,   1.758e-4
1.375,   1.767e-4
1.377,   1.770e-4
1.379,   1.776e-4
1.381,   1.792e-4
1.383,   1.797e-4
1.385,   1.803e-4
1.387,   1.813e-4
1.389,   1.825e-4
1.391,   1.835e-4
1.393,   1.844e-4
1.395,   1.850e-4
1.397,   1.865e-4
1.399,   1.876e-4
1.401,   1.883e-4
1.403,   1.893e-4
1.405,   1.909e-4
1.407,   1.922e-4
1.409,   1.936e-4
1.411,   1.945e-4
1.413,   1.969e-4
1.415,   1.985e-4
1.417,   2.003e-4
1.419,   2.036e-4
1.421,   2.057e-4
1.423,   2.082e-4
1.425,   2.111e-4
1.427,   2.144e-4
1.429,   2.188e-4
1.431,   2.232e-4
1.433,   2.277e-4
1.435,   2.331e-4
1.437,   2.397e-4
1.439,   2.463e-4
1.441,   2.535e-4
1.443,   2.615e-4
1.445,   2.716e-4
1.447,   2.816e-4
1.449,   2.925e-4
1.451,   3.051e-4
1.453,   3.192e-4
1.455,   3.344e-4
1.457,   3.505e-4
1.459,   3.686e-4
1.461,   3.895e-4
1.463,   4.114e-4
1.465,   4.352e-4
1.467,   4.619e-4
1.469,   4.916e-4
1.471,   5.230e-4
1.473,   5.573e-4
1.475,   5.954e-4
1.477,   6.375e-4
1.479,   6.825e-4
1.481,   7.312e-4
1.483,   7.846e-4
1.485,   8.429e-4
1.487,   9.056e-4
1.489,   9.743e-4
1.491,   1.048e-3
1.493,   1.128e-3
1.495,   1.214e-3
1.497,   1.306e-3
1.499,   1.405e-3
1.501,   1.510e-3
1.503,   1.623e-3
1.505,   1.744e-3
1.507,   1.874e-3
1.509,   2.012e-3
1.511,   2.157e-3
1.513,   2.311e-3
1.515,   2.472e-3
1.517,   2.640e-3
1.519,   2.820e-3
1.521,   3.009e-3
1.523,   3.209e-3
1.525,   3.421e-3
1.527,   3.640e-3
1.529,   3.863e-3
1.531,   4.116e-3
1.533,   4.383e-3
1.535,   4.677e-3
1.537,   4.979e-3
1.539,   5.293e-3
1.541,   5.621e-3
1.543,   5.971e-3
1.545,   6.333e-3
1.547,   6.718e-3
1.549,   7.117e-3
1.551,   7.546e-3
1.553,   7.977e-3
1.555,   8.451e-3
1.557,   8.917e-3
1.559,   9.428e-3
1.561,   9.929e-3
1.563,   1.007e-2
1.565,   1.007e-2
1.566,   1.007e-2