File: Experimental Records and Raw Data/batch2/final400/B2_BEST_400#7_Full-187mV.txt
Jan. 13, 2023   17:00:58
Linear Sweep Voltammetry
File: d:\current work\al_oer\electrochemical test data\batch 2\400\B2_BEST_400#7_Full-187mV.txt
Data Source:  Experiment
Instrument Model:  CHI660E
Header:
Note:

Init E (V) = 1.098

Final E (V) = 1.449

Scan Rate (V/s) = 0.010
Sample Interval (V) = 0.001
Quiet Time (sec) = 2
Sensitivity (A/V) = 0.001
Comp R (ohm) = 6.0

Results:

Channel 1:

Potential/V, Current/A
1.098,   8.295e-4
1.100,   6.736e-4
1.102,   5.557e-4
1.104,   4.681e-4
1.106,   4.073e-4
1.108,   3.560e-4
1.110,   3.291e-4
1.112,   2.999e-4
1.114,   2.833e-4
1.116,   2.614e-4
1.118,   2.518e-4
1.120,   2.364e-4
1.122,   2.236e-4
1.124,   2.205e-4
1.126,   2.131e-4
1.128,   2.019e-4
1.130,   1.960e-4
1.132,   1.974e-4
1.134,   1.962e-4
1.136,   1.896e-4
1.138,   1.860e-4
1.140,   1.874e-4
1.142,   1.826e-4
1.144,   1.770e-4
1.146,   1.831e-4
1.148,   1.722e-4
1.150,   1.779e-4
1.152,   1.605e-4
1.154,   1.719e-4
1.156,   1.635e-4
1.158,   1.732e-4
1.160,   1.668e-4
1.162,   1.564e-4
1.164,   1.702e-4
1.166,   1.670e-4
1.168,   1.640e-4
1.170,   1.535e-4
1.172,   1.580e-4
1.174,   1.649e-4
1.176,   1.700e-4
1.178,   1.663e-4
1.180,   1.705e-4
1.182,   1.619e-4
1.184,   1.646e-4
1.186,   1.657e-4
1.188,   1.633e-4
1.190,   1.681e-4
1.192,   1.698e-4
1.194,   1.647e-4
1.196,   1.609e-4
1.198,   1.508e-4
1.200,   1.467e-4
1.202,   1.579e-4
1.204,   1.704e-4
1.206,   1.583e-4
1.208,   1.513e-4
1.210,   1.528e-4
1.212,   1.656e-4
1.214,   1.560e-4
1.216,   1.517e-4
1.218,   1.681e-4
1.220,   1.519e-4
1.222,   1.581e-4
1.224,   1.670e-4
1.226,   1.487e-4
1.228,   1.641e-4
1.230,   1.537e-4
1.232,   1.585e-4
1.234,   1.508e-4
1.236,   1.581e-4
1.238,   1.577e-4
1.240,   1.647e-4
1.242,   1.543e-4
1.244,   1.607e-4
1.246,   1.521e-4
1.248,   1.675e-4
1.250,   1.556e-4
1.252,   1.541e-4
1.254,   1.604e-4
1.256,   1.559e-4
1.258,   1.685e-4
1.260,   1.536e-4
1.262,   1.586e-4
1.264,   1.660e-4
1.266,   1.527e-4
1.268,   1.623e-4
1.270,   1.639e-4
1.272,   1.567e-4
1.274,   1.593e-4
1.276,   1.649e-4
1.278,   1.580e-4
1.280,   1.592e-4
1.282,   1.635e-4
1.284,   1.587e-4
1.286,   1.594e-4
1.288,   1.697e-4
1.290,   1.566e-4
1.292,   1.578e-4
1.294,   1.708e-4
1.296,   1.579e-4
1.298,   1.659e-4
1.300,   1.527e-4
1.302,   1.701e-4
1.304,   1.631e-4
1.306,   1.691e-4
1.308,   1.612e-4
1.310,   1.660e-4
1.312,   1.619e-4
1.314,   1.701e-4
1.316,   1.652e-4
1.318,   1.722e-4
1.320,   1.609e-4
1.322,   1.708e-4
1.324,   1.588e-4
1.326,   1.727e-4
1.328,   1.628e-4
1.330,   1.766e-4
1.332,   1.726e-4
1.334,   1.708e-4
1.336,   1.809e-4
1.338,   1.679e-4
1.340,   1.827e-4
1.342,   1.764e-4
1.344,   1.749e-4
1.346,   1.867e-4
1.348,   1.752e-4
1.350,   1.877e-4
1.352,   1.933e-4
1.354,   1.837e-4
1.356,   1.981e-4
1.358,   2.038e-4
1.360,   1.965e-4
1.362,   2.102e-4
1.364,   2.221e-4
1.366,   2.148e-4
1.368,   2.319e-4
1.370,   2.461e-4
1.372,   2.432e-4
1.374,   2.721e-4
1.376,   2.832e-4
1.378,   2.894e-4
1.380,   3.217e-4
1.382,   3.481e-4
1.384,   3.598e-4
1.386,   3.992e-4
1.388,   4.414e-4
1.390,   4.663e-4
1.392,   5.189e-4
1.394,   5.761e-4
1.396,   6.221e-4
1.398,   7.041e-4
1.400,   7.685e-4
1.402,   8.532e-4
1.404,   9.484e-4
1.406,   1.050e-3
1.408,   1.182e-3
1.410,   1.301e-3
1.412,   1.463e-3
1.414,   1.612e-3
1.416,   1.803e-3
1.418,   2.006e-3
1.420,   2.219e-3
1.422,   2.467e-3
1.424,   2.744e-3
1.426,   3.030e-3
1.428,   3.384e-3
1.430,   3.784e-3
1.432,   4.276e-3
1.434,   4.819e-3
1.436,   5.447e-3
1.438,   6.192e-3
1.440,   7.013e-3
1.442,   7.956e-3
1.444,   9.030e-3
1.446,   1.006e-2
1.448,   1.006e-2
1.449,   1.006e-2