File: Experimental Records and Raw Data/batch2/final400/B2_BEST_400#20_High_Quality-274mV.txt
Jan. 14, 2023   13:57:20
Linear Sweep Voltammetry
File: d:\current work\al_oer\electrochemical test data\batch 2\400\B2_BEST_400#20_High_Quality-274mV.txt
Data Source:  Experiment
Instrument Model:  CHI660E
Header:
Note:

Init E (V) = 1.101

Final E (V) = 1.600

Scan Rate (V/s) = 0.010
Sample Interval (V) = 0.001
Quiet Time (sec) = 2
Sensitivity (A/V) = 0.001
Comp R (ohm) = 5.8

Results:

Channel 1:

Potential/V, Current/A
1.101,   1.586e-4
1.103,   1.397e-4
1.105,   1.225e-4
1.107,   1.090e-4
1.109,   9.820e-5
1.111,   8.961e-5
1.113,   8.239e-5
1.115,   7.645e-5
1.117,   7.144e-5
1.119,   6.728e-5
1.121,   6.362e-5
1.123,   6.048e-5
1.125,   5.774e-5
1.127,   5.543e-5
1.129,   5.347e-5
1.131,   5.161e-5
1.133,   4.996e-5
1.135,   4.858e-5
1.137,   4.732e-5
1.139,   4.618e-5
1.141,   4.519e-5
1.143,   4.426e-5
1.145,   4.341e-5
1.147,   4.265e-5
1.149,   4.200e-5
1.151,   4.139e-5
1.153,   4.090e-5
1.155,   4.034e-5
1.157,   3.992e-5
1.159,   3.961e-5
1.161,   3.924e-5
1.163,   3.885e-5
1.165,   3.853e-5
1.167,   3.838e-5
1.169,   3.812e-5
1.171,   3.792e-5
1.173,   3.778e-5
1.175,   3.767e-5
1.177,   3.758e-5
1.179,   3.745e-5
1.181,   3.734e-5
1.183,   3.725e-5
1.185,   3.715e-5
1.187,   3.713e-5
1.189,   3.705e-5
1.191,   3.698e-5
1.193,   3.697e-5
1.195,   3.693e-5
1.197,   3.689e-5
1.199,   3.695e-5
1.201,   3.697e-5
1.203,   3.696e-5
1.205,   3.700e-5
1.207,   3.706e-5
1.209,   3.706e-5
1.211,   3.714e-5
1.213,   3.713e-5
1.215,   3.722e-5
1.217,   3.726e-5
1.219,   3.733e-5
1.221,   3.739e-5
1.223,   3.744e-5
1.225,   3.745e-5
1.227,   3.749e-5
1.229,   3.766e-5
1.231,   3.776e-5
1.233,   3.785e-5
1.235,   3.787e-5
1.237,   3.796e-5
1.239,   3.810e-5
1.241,   3.822e-5
1.243,   3.828e-5
1.245,   3.834e-5
1.247,   3.853e-5
1.249,   3.855e-5
1.251,   3.866e-5
1.253,   3.874e-5
1.255,   3.887e-5
1.257,   3.899e-5
1.259,   3.903e-5
1.261,   3.921e-5
1.263,   3.931e-5
1.265,   3.946e-5
1.267,   3.951e-5
1.269,   3.958e-5
1.271,   3.976e-5
1.273,   3.988e-5
1.275,   3.999e-5
1.277,   4.005e-5
1.279,   4.019e-5
1.281,   4.025e-5
1.283,   4.042e-5
1.285,   4.047e-5
1.287,   4.053e-5
1.289,   4.068e-5
1.291,   4.079e-5
1.293,   4.082e-5
1.295,   4.098e-5
1.297,   4.109e-5
1.299,   4.115e-5
1.301,   4.122e-5
1.303,   4.141e-5
1.305,   4.151e-5
1.307,   4.159e-5
1.309,   4.169e-5
1.311,   4.181e-5
1.313,   4.199e-5
1.315,   4.211e-5
1.317,   4.219e-5
1.319,   4.233e-5
1.321,   4.248e-5
1.323,   4.262e-5
1.325,   4.266e-5
1.327,   4.292e-5
1.329,   4.302e-5
1.331,   4.317e-5
1.333,   4.334e-5
1.335,   4.344e-5
1.337,   4.367e-5
1.339,   4.384e-5
1.341,   4.399e-5
1.343,   4.421e-5
1.345,   4.439e-5
1.347,   4.462e-5
1.349,   4.483e-5
1.351,   4.512e-5
1.353,   4.547e-5
1.355,   4.573e-5
1.357,   4.599e-5
1.359,   4.637e-5
1.361,   4.675e-5
1.363,   4.716e-5
1.365,   4.758e-5
1.367,   4.808e-5
1.369,   4.861e-5
1.371,   4.921e-5
1.373,   4.980e-5
1.375,   5.056e-5
1.377,   5.138e-5
1.379,   5.220e-5
1.381,   5.316e-5
1.383,   5.429e-5
1.385,   5.545e-5
1.387,   5.667e-5
1.389,   5.819e-5
1.391,   5.993e-5
1.393,   6.176e-5
1.395,   6.380e-5
1.397,   6.624e-5
1.399,   6.876e-5
1.401,   7.161e-5
1.403,   7.481e-5
1.405,   7.840e-5
1.407,   8.230e-5
1.409,   8.667e-5
1.411,   9.144e-5
1.413,   9.668e-5
1.415,   1.024e-4
1.417,   1.088e-4
1.419,   1.157e-4
1.421,   1.233e-4
1.423,   1.316e-4
1.425,   1.405e-4
1.427,   1.500e-4
1.429,   1.606e-4
1.431,   1.719e-4
1.433,   1.839e-4
1.435,   1.967e-4
1.437,   2.108e-4
1.439,   2.273e-4
1.441,   2.446e-4
1.443,   2.627e-4
1.445,   2.850e-4
1.447,   3.066e-4
1.449,   3.299e-4
1.451,   3.549e-4
1.453,   3.809e-4
1.455,   4.071e-4
1.457,   4.373e-4
1.459,   4.688e-4
1.461,   5.019e-4
1.463,   5.450e-4
1.465,   5.872e-4
1.467,   6.295e-4
1.469,   6.737e-4
1.471,   7.177e-4
1.473,   7.677e-4
1.475,   8.157e-4
1.477,   8.625e-4
1.479,   9.349e-4
1.481,   9.827e-4
1.483,   1.047e-3
1.485,   1.113e-3
1.487,   1.184e-3
1.489,   1.258e-3
1.491,   1.326e-3
1.493,   1.412e-3
1.495,   1.491e-3
1.497,   1.578e-3
1.499,   1.673e-3
1.501,   1.786e-3
1.503,   1.881e-3
1.505,   1.986e-3
1.507,   2.090e-3
1.509,   2.200e-3
1.511,   2.307e-3
1.513,   2.431e-3
1.515,   2.550e-3
1.517,   2.675e-3
1.519,   2.796e-3
1.521,   2.925e-3
1.523,   3.070e-3
1.525,   3.225e-3
1.527,   3.374e-3
1.529,   3.518e-3
1.531,   3.670e-3
1.533,   3.814e-3
1.535,   3.947e-3
1.537,   4.089e-3
1.539,   4.294e-3
1.541,   4.468e-3
1.543,   4.639e-3
1.545,   4.802e-3
1.547,   4.993e-3
1.549,   5.162e-3
1.551,   5.354e-3
1.553,   5.529e-3
1.555,   5.722e-3
1.557,   6.037e-3
1.559,   6.329e-3
1.561,   6.495e-3
1.563,   6.681e-3
1.565,   6.916e-3
1.567,   7.114e-3
1.569,   7.299e-3
1.571,   7.494e-3
1.573,   7.710e-3
1.575,   7.932e-3
1.577,   8.167e-3
1.579,   8.378e-3
1.581,   8.569e-3
1.583,   8.785e-3
1.585,   8.997e-3
1.587,   9.271e-3
1.589,   9.566e-3
1.591,   9.792e-3
1.593,   1.000e-2
1.595,   1.006e-2
1.597,   1.006e-2
1.599,   1.006e-2
1.600,   1.006e-2