File: Experimental Records and Raw Data/batch2/final400/B2_BEST_400#15_High_Quality-296mV.txt
Jan. 18, 2023   14:53:32
Linear Sweep Voltammetry
File: d:\current work\al_oer\electrochemical test data\batch 2\400\B2_BEST_400#15_High_Quality-296mV.txt
Data Source:  Experiment
Instrument Model:  CHI660E
Header:
Note:

Init E (V) = 1.099

Final E (V) = 1.745

Scan Rate (V/s) = 0.010
Sample Interval (V) = 0.001
Quiet Time (sec) = 2
Sensitivity (A/V) = 0.001
Comp R (ohm) = 5.5

Results:

Channel 1:
Ep = 1.513V
ip = 6.290e-3A
Ah = 1.580e-1C

Potential/V, Current/A
1.099,   1.602e-4
1.102,   1.376e-4
1.105,   1.195e-4
1.108,   1.053e-4
1.111,   9.434e-5
1.114,   8.546e-5
1.117,   7.828e-5
1.120,   7.232e-5
1.123,   6.750e-5
1.126,   6.336e-5
1.129,   5.997e-5
1.132,   5.702e-5
1.135,   5.454e-5
1.138,   5.241e-5
1.141,   5.050e-5
1.144,   4.884e-5
1.147,   4.740e-5
1.150,   4.616e-5
1.153,   4.507e-5
1.156,   4.414e-5
1.159,   4.329e-5
1.162,   4.251e-5
1.165,   4.186e-5
1.168,   4.124e-5
1.171,   4.077e-5
1.174,   4.029e-5
1.177,   3.993e-5
1.180,   3.951e-5
1.183,   3.924e-5
1.186,   3.900e-5
1.189,   3.878e-5
1.192,   3.848e-5
1.195,   3.840e-5
1.198,   3.831e-5
1.201,   3.815e-5
1.204,   3.804e-5
1.207,   3.796e-5
1.210,   3.794e-5
1.213,   3.789e-5
1.216,   3.794e-5
1.219,   3.788e-5
1.222,   3.794e-5
1.225,   3.795e-5
1.228,   3.798e-5
1.231,   3.810e-5
1.234,   3.811e-5
1.237,   3.822e-5
1.240,   3.831e-5
1.243,   3.846e-5
1.246,   3.863e-5
1.249,   3.873e-5
1.252,   3.884e-5
1.255,   3.903e-5
1.258,   3.917e-5
1.261,   3.933e-5
1.264,   3.946e-5
1.267,   3.956e-5
1.270,   3.979e-5
1.273,   3.995e-5
1.276,   4.015e-5
1.279,   4.031e-5
1.282,   4.053e-5
1.285,   4.070e-5
1.288,   4.096e-5
1.291,   4.109e-5
1.294,   4.132e-5
1.297,   4.159e-5
1.300,   4.182e-5
1.303,   4.208e-5
1.306,   4.365e-5
1.309,   4.293e-5
1.312,   4.316e-5
1.315,   4.342e-5
1.318,   4.382e-5
1.321,   4.412e-5
1.324,   4.453e-5
1.327,   4.500e-5
1.330,   4.554e-5
1.333,   4.604e-5
1.336,   4.661e-5
1.339,   4.733e-5
1.342,   4.806e-5
1.345,   4.885e-5
1.348,   4.972e-5
1.351,   5.068e-5
1.354,   5.172e-5
1.357,   5.271e-5
1.360,   5.379e-5
1.363,   5.502e-5
1.366,   5.627e-5
1.369,   5.770e-5
1.372,   5.908e-5
1.375,   6.064e-5
1.378,   6.223e-5
1.381,   6.388e-5
1.384,   6.560e-5
1.387,   6.743e-5
1.390,   6.957e-5
1.393,   7.180e-5
1.396,   7.420e-5
1.399,   7.693e-5
1.402,   7.993e-5
1.405,   8.325e-5
1.408,   8.689e-5
1.411,   9.107e-5
1.414,   9.581e-5
1.417,   1.012e-4
1.420,   1.072e-4
1.423,   1.144e-4
1.426,   1.224e-4
1.429,   1.315e-4
1.432,   1.418e-4
1.435,   1.534e-4
1.438,   1.666e-4
1.441,   1.814e-4
1.444,   1.978e-4
1.447,   2.162e-4
1.450,   2.365e-4
1.453,   2.594e-4
1.456,   2.846e-4
1.459,   3.125e-4
1.462,   3.432e-4
1.465,   3.768e-4
1.468,   4.135e-4
1.471,   4.534e-4
1.474,   4.966e-4
1.477,   5.442e-4
1.480,   5.955e-4
1.483,   6.507e-4
1.486,   7.103e-4
1.489,   7.747e-4
1.492,   8.427e-4
1.495,   9.167e-4
1.498,   9.938e-4
1.501,   1.075e-3
1.504,   1.162e-3
1.507,   1.253e-3
1.510,   1.347e-3
1.513,   1.446e-3
1.516,   1.548e-3
1.519,   1.655e-3
1.522,   1.763e-3
1.525,   1.878e-3
1.528,   1.993e-3
1.531,   2.110e-3
1.534,   2.231e-3
1.537,   2.379e-3
1.540,   2.511e-3
1.543,   2.636e-3
1.546,   2.764e-3
1.549,   2.893e-3
1.552,   3.025e-3
1.555,   3.163e-3
1.558,   3.295e-3
1.561,   3.430e-3
1.564,   3.578e-3
1.567,   3.717e-3
1.570,   3.855e-3
1.573,   3.988e-3
1.576,   4.140e-3
1.579,   4.272e-3
1.582,   4.415e-3
1.585,   4.565e-3
1.588,   4.723e-3
1.591,   4.990e-3
1.594,   5.123e-3
1.597,   5.263e-3
1.600,   5.433e-3
1.603,   5.576e-3
1.606,   5.707e-3
1.609,   5.868e-3
1.612,   6.007e-3
1.615,   6.165e-3
1.618,   6.324e-3
1.621,   6.485e-3
1.624,   6.625e-3
1.627,   6.769e-3
1.630,   6.936e-3
1.633,   7.085e-3
1.636,   7.221e-3
1.639,   7.334e-3
1.642,   7.491e-3
1.645,   7.612e-3
1.648,   7.732e-3
1.651,   7.833e-3
1.654,   8.010e-3
1.657,   8.211e-3
1.660,   8.313e-3
1.663,   8.333e-3
1.666,   8.489e-3
1.669,   8.524e-3
1.672,   8.607e-3
1.675,   8.636e-3
1.678,   8.713e-3
1.681,   8.910e-3
1.684,   8.993e-3
1.687,   8.985e-3
1.690,   9.010e-3
1.693,   9.082e-3
1.696,   9.087e-3
1.699,   9.121e-3
1.702,   9.057e-3
1.705,   9.043e-3
1.708,   9.081e-3
1.711,   9.196e-3
1.714,   9.144e-3
1.717,   9.146e-3
1.720,   9.066e-3
1.723,   9.047e-3
1.726,   9.037e-3
1.729,   9.009e-3
1.732,   8.947e-3
1.735,   8.993e-3
1.738,   8.916e-3
1.741,   8.897e-3
1.744,   8.805e-3
1.745,   8.794e-3