File: Experimental Records and Raw Data/batch2/final400/B2_BEST_400#4_Full-202mV.txt
Jan. 14, 2023   14:08:21
Linear Sweep Voltammetry
File: d:\current work\al_oer\electrochemical test data\batch 2\400\B2_BEST_400#4_Full-202mV.txt
Data Source:  Experiment
Instrument Model:  CHI660E
Header:
Note:

Init E (V) = 1.098

Final E (V) = 1.597

Scan Rate (V/s) = 0.010
Sample Interval (V) = 0.001
Quiet Time (sec) = 2
Sensitivity (A/V) = 0.001
Comp R (ohm) = 6.4

Results:

Channel 1:
Ep = 1.266V
ip = 9.954e-3A
Ah = 3.531e-2C

Potential/V, Current/A
1.098,   2.489e-4
1.100,   2.423e-4
1.102,   2.106e-4
1.104,   1.951e-4
1.106,   1.735e-4
1.108,   1.674e-4
1.110,   1.558e-4
1.112,   1.444e-4
1.114,   1.407e-4
1.116,   1.398e-4
1.118,   1.358e-4
1.120,   1.320e-4
1.122,   1.291e-4
1.124,   1.260e-4
1.126,   1.200e-4
1.128,   1.151e-4
1.130,   1.168e-4
1.132,   1.180e-4
1.134,   1.111e-4
1.136,   1.152e-4
1.138,   1.094e-4
1.140,   1.120e-4
1.142,   1.107e-4
1.144,   1.081e-4
1.146,   1.085e-4
1.148,   1.085e-4
1.150,   1.078e-4
1.152,   1.068e-4
1.154,   1.062e-4
1.156,   1.040e-4
1.158,   1.054e-4
1.160,   1.089e-4
1.162,   1.061e-4
1.164,   1.018e-4
1.166,   1.087e-4
1.168,   1.026e-4
1.170,   1.081e-4
1.172,   1.016e-4
1.174,   1.090e-4
1.176,   1.048e-4
1.178,   9.965e-5
1.180,   1.065e-4
1.182,   1.112e-4
1.184,   1.094e-4
1.186,   1.084e-4
1.188,   1.058e-4
1.190,   1.055e-4
1.192,   1.091e-4
1.194,   1.098e-4
1.196,   1.110e-4
1.198,   1.027e-4
1.200,   1.009e-4
1.202,   1.094e-4
1.204,   1.068e-4
1.206,   1.032e-4
1.208,   1.115e-4
1.210,   1.009e-4
1.212,   1.096e-4
1.214,   1.036e-4
1.216,   1.052e-4
1.218,   1.076e-4
1.220,   1.035e-4
1.222,   1.049e-4
1.224,   1.059e-4
1.226,   1.077e-4
1.228,   1.073e-4
1.230,   1.046e-4
1.232,   1.079e-4
1.234,   1.075e-4
1.236,   1.075e-4
1.238,   1.070e-4
1.240,   1.063e-4
1.242,   1.063e-4
1.244,   1.064e-4
1.246,   1.068e-4
1.248,   1.094e-4
1.250,   1.091e-4
1.252,   1.012e-4
1.254,   1.031e-4
1.256,   1.108e-4
1.258,   1.020e-4
1.260,   1.093e-4
1.262,   1.086e-4
1.264,   1.097e-4
1.266,   1.110e-4
1.268,   1.153e-4
1.270,   9.880e-5
1.272,   1.146e-4
1.274,   1.171e-4
1.276,   1.063e-4
1.278,   1.047e-4
1.280,   1.064e-4
1.282,   1.234e-4
1.284,   1.137e-4
1.286,   1.139e-4
1.288,   1.009e-4
1.290,   1.033e-4
1.292,   9.913e-5
1.294,   1.006e-4
1.296,   1.044e-4
1.298,   1.025e-4
1.300,   1.007e-4
1.302,   1.058e-4
1.304,   1.038e-4
1.306,   1.048e-4
1.308,   1.173e-4
1.310,   1.258e-4
1.312,   1.223e-4
1.314,   1.106e-4
1.316,   1.011e-4
1.318,   1.125e-4
1.320,   1.232e-4
1.322,   1.071e-4
1.324,   1.109e-4
1.326,   1.219e-4
1.328,   1.060e-4
1.330,   1.260e-4
1.332,   1.087e-4
1.334,   1.196e-4
1.336,   1.114e-4
1.338,   1.235e-4
1.340,   1.121e-4
1.342,   1.272e-4
1.344,   1.141e-4
1.346,   1.183e-4
1.348,   1.308e-4
1.350,   1.164e-4
1.352,   1.271e-4
1.354,   1.169e-4
1.356,   1.273e-4
1.358,   1.197e-4
1.360,   1.304e-4
1.362,   1.364e-4
1.364,   1.252e-4
1.366,   1.361e-4
1.368,   1.465e-4
1.370,   1.437e-4
1.372,   1.376e-4
1.374,   1.430e-4
1.376,   1.564e-4
1.378,   1.493e-4
1.380,   1.625e-4
1.382,   1.788e-4
1.384,   1.799e-4
1.386,   2.050e-4
1.388,   2.117e-4
1.390,   2.115e-4
1.392,   2.583e-4
1.394,   2.615e-4
1.396,   2.699e-4
1.398,   3.200e-4
1.400,   3.596e-4
1.402,   4.023e-4
1.404,   4.351e-4
1.406,   4.837e-4
1.408,   5.309e-4
1.410,   5.954e-4
1.412,   6.675e-4
1.414,   7.484e-4
1.416,   8.347e-4
1.418,   9.222e-4
1.420,   1.008e-3
1.422,   1.119e-3
1.424,   1.249e-3
1.426,   1.409e-3
1.428,   1.555e-3
1.430,   1.694e-3
1.432,   1.881e-3
1.434,   2.093e-3
1.436,   2.279e-3
1.438,   2.512e-3
1.440,   2.794e-3
1.442,   3.026e-3
1.444,   3.357e-3
1.446,   3.653e-3
1.448,   4.030e-3
1.450,   4.534e-3
1.452,   5.078e-3
1.454,   5.742e-3
1.456,   6.477e-3
1.458,   7.347e-3
1.460,   8.482e-3
1.462,   1.004e-2
1.464,   1.006e-2
1.466,   1.006e-2
1.468,   1.006e-2
1.470,   1.006e-2
1.472,   1.006e-2
1.474,   1.006e-2
1.476,   1.006e-2
1.478,   1.006e-2
1.480,   1.006e-2
1.482,   1.006e-2
1.484,   1.006e-2
1.486,   1.006e-2
1.488,   1.006e-2
1.490,   1.006e-2
1.492,   1.006e-2
1.494,   1.006e-2
1.496,   1.006e-2
1.498,   1.006e-2
1.500,   1.006e-2
1.502,   1.006e-2
1.504,   1.006e-2
1.506,   1.006e-2
1.508,   1.006e-2
1.510,   1.006e-2
1.512,   1.006e-2
1.514,   1.006e-2
1.516,   1.006e-2
1.518,   1.006e-2
1.520,   1.006e-2
1.522,   1.006e-2
1.524,   1.006e-2
1.526,   1.006e-2
1.528,   1.006e-2
1.530,   1.006e-2
1.532,   1.006e-2
1.534,   1.006e-2
1.536,   1.006e-2
1.538,   1.006e-2
1.540,   1.006e-2
1.542,   1.006e-2
1.544,   1.006e-2
1.546,   1.006e-2
1.548,   1.006e-2
1.550,   1.006e-2
1.552,   1.006e-2
1.554,   1.006e-2
1.556,   1.006e-2
1.558,   1.006e-2
1.560,   1.006e-2
1.562,   1.006e-2
1.564,   1.006e-2
1.566,   1.006e-2
1.568,   1.006e-2
1.570,   1.006e-2
1.572,   1.006e-2
1.574,   1.006e-2
1.576,   1.006e-2
1.578,   1.006e-2
1.580,   1.006e-2
1.582,   1.006e-2
1.584,   1.006e-2
1.586,   1.006e-2
1.588,   1.006e-2
1.590,   1.006e-2
1.592,   1.006e-2
1.594,   1.006e-2
1.596,   1.006e-2
1.597,   1.006e-2