File: Experimental Records and Raw Data/batch2/final400/B2_BEST_400#18_Full-272mV.txt
Jan. 14, 2023   16:40:16
Linear Sweep Voltammetry
File: d:\current work\al_oer\electrochemical test data\batch 2\400\B2_BEST_400#18_Full-272mV.txt
Data Source:  Experiment
Instrument Model:  CHI660E
Header:
Note:

Init E (V) = 1.098

Final E (V) = 1.580

Scan Rate (V/s) = 0.010
Sample Interval (V) = 0.001
Quiet Time (sec) = 2
Sensitivity (A/V) = 0.001
Comp R (ohm) = 5.7

Results:

Channel 1:

Potential/V, Current/A
1.098,   3.306e-4
1.100,   2.986e-4
1.102,   2.725e-4
1.104,   2.519e-4
1.106,   2.342e-4
1.108,   2.192e-4
1.110,   2.064e-4
1.112,   1.954e-4
1.114,   1.862e-4
1.116,   1.780e-4
1.118,   1.707e-4
1.120,   1.641e-4
1.122,   1.580e-4
1.124,   1.530e-4
1.126,   1.483e-4
1.128,   1.434e-4
1.130,   1.389e-4
1.132,   1.350e-4
1.134,   1.317e-4
1.136,   1.287e-4
1.138,   1.257e-4
1.140,   1.230e-4
1.142,   1.202e-4
1.144,   1.177e-4
1.146,   1.154e-4
1.148,   1.133e-4
1.150,   1.111e-4
1.152,   1.093e-4
1.154,   1.073e-4
1.156,   1.059e-4
1.158,   1.043e-4
1.160,   1.030e-4
1.162,   1.016e-4
1.164,   1.001e-4
1.166,   9.888e-5
1.168,   9.775e-5
1.170,   9.694e-5
1.172,   9.565e-5
1.174,   9.471e-5
1.176,   9.373e-5
1.178,   9.292e-5
1.180,   9.194e-5
1.182,   9.112e-5
1.184,   9.041e-5
1.186,   8.972e-5
1.188,   8.917e-5
1.190,   8.867e-5
1.192,   8.813e-5
1.194,   8.753e-5
1.196,   8.699e-5
1.198,   8.649e-5
1.200,   8.618e-5
1.202,   8.574e-5
1.204,   8.539e-5
1.206,   8.492e-5
1.208,   8.464e-5
1.210,   8.422e-5
1.212,   8.401e-5
1.214,   8.395e-5
1.216,   8.361e-5
1.218,   8.336e-5
1.220,   8.325e-5
1.222,   8.322e-5
1.224,   8.295e-5
1.226,   8.282e-5
1.228,   8.286e-5
1.230,   8.265e-5
1.232,   8.254e-5
1.234,   8.243e-5
1.236,   8.240e-5
1.238,   8.237e-5
1.240,   8.238e-5
1.242,   8.240e-5
1.244,   8.243e-5
1.246,   8.237e-5
1.248,   8.230e-5
1.250,   8.257e-5
1.252,   8.257e-5
1.254,   8.257e-5
1.256,   8.252e-5
1.258,   8.233e-5
1.260,   8.253e-5
1.262,   8.256e-5
1.264,   8.261e-5
1.266,   8.267e-5
1.268,   8.261e-5
1.270,   8.256e-5
1.272,   8.254e-5
1.274,   8.275e-5
1.276,   8.278e-5
1.278,   8.292e-5
1.280,   8.288e-5
1.282,   8.299e-5
1.284,   8.305e-5
1.286,   8.308e-5
1.288,   8.325e-5
1.290,   8.332e-5
1.292,   8.351e-5
1.294,   8.367e-5
1.296,   8.374e-5
1.298,   8.398e-5
1.300,   8.428e-5
1.302,   8.452e-5
1.304,   8.468e-5
1.306,   8.499e-5
1.308,   8.498e-5
1.310,   8.526e-5
1.312,   8.541e-5
1.314,   8.556e-5
1.316,   8.578e-5
1.318,   8.612e-5
1.320,   8.641e-5
1.322,   8.676e-5
1.324,   8.728e-5
1.326,   8.765e-5
1.328,   8.795e-5
1.330,   8.818e-5
1.332,   8.854e-5
1.334,   8.910e-5
1.336,   8.963e-5
1.338,   8.999e-5
1.340,   9.064e-5
1.342,   9.126e-5
1.344,   9.186e-5
1.346,   9.258e-5
1.348,   9.329e-5
1.350,   9.414e-5
1.352,   9.501e-5
1.354,   9.586e-5
1.356,   9.693e-5
1.358,   9.797e-5
1.360,   9.923e-5
1.362,   1.006e-4
1.364,   1.020e-4
1.366,   1.036e-4
1.368,   1.054e-4
1.370,   1.073e-4
1.372,   1.095e-4
1.374,   1.122e-4
1.376,   1.149e-4
1.378,   1.181e-4
1.380,   1.216e-4
1.382,   1.255e-4
1.384,   1.298e-4
1.386,   1.343e-4
1.388,   1.400e-4
1.390,   1.459e-4
1.392,   1.523e-4
1.394,   1.597e-4
1.396,   1.677e-4
1.398,   1.766e-4
1.400,   1.865e-4
1.402,   1.969e-4
1.404,   2.082e-4
1.406,   2.202e-4
1.408,   2.334e-4
1.410,   2.476e-4
1.412,   2.628e-4
1.414,   2.778e-4
1.416,   2.943e-4
1.418,   3.138e-4
1.420,   3.342e-4
1.422,   3.556e-4
1.424,   3.801e-4
1.426,   4.045e-4
1.428,   4.300e-4
1.430,   4.567e-4
1.432,   4.849e-4
1.434,   5.136e-4
1.436,   5.467e-4
1.438,   5.760e-4
1.440,   6.084e-4
1.442,   6.398e-4
1.444,   6.756e-4
1.446,   7.137e-4
1.448,   7.514e-4
1.450,   7.922e-4
1.452,   8.334e-4
1.454,   8.736e-4
1.456,   9.173e-4
1.458,   9.610e-4
1.460,   1.005e-3
1.462,   1.052e-3
1.464,   1.098e-3
1.466,   1.146e-3
1.468,   1.193e-3
1.470,   1.237e-3
1.472,   1.284e-3
1.474,   1.333e-3
1.476,   1.379e-3
1.478,   1.429e-3
1.480,   1.477e-3
1.482,   1.526e-3
1.484,   1.576e-3
1.486,   1.625e-3
1.488,   1.667e-3
1.490,   1.705e-3
1.492,   1.750e-3
1.494,   1.794e-3
1.496,   1.835e-3
1.498,   1.872e-3
1.500,   1.907e-3
1.502,   1.946e-3
1.504,   1.967e-3
1.506,   2.002e-3
1.508,   2.037e-3
1.510,   2.072e-3
1.512,   2.104e-3
1.514,   2.130e-3
1.516,   2.151e-3
1.518,   2.179e-3
1.520,   2.214e-3
1.522,   2.271e-3
1.524,   2.290e-3
1.526,   2.305e-3
1.528,   2.322e-3
1.530,   2.332e-3
1.532,   2.344e-3
1.534,   2.361e-3
1.536,   2.367e-3
1.538,   2.377e-3
1.540,   2.392e-3
1.542,   2.402e-3
1.544,   2.453e-3
1.546,   2.458e-3
1.548,   2.462e-3
1.550,   2.465e-3
1.552,   2.473e-3
1.554,   2.478e-3
1.556,   2.484e-3
1.558,   2.494e-3
1.560,   2.494e-3
1.562,   2.505e-3
1.564,   2.513e-3
1.566,   2.515e-3
1.568,   2.520e-3
1.570,   2.527e-3
1.572,   2.536e-3
1.574,   2.544e-3
1.576,   2.548e-3
1.578,   2.559e-3
1.580,   2.562e-3