File: Experimental Records and Raw Data/batch2/final400/B2_BEST_400#14_High_Quality-218mV.txt
Jan. 14, 2023   14:48:19
Linear Sweep Voltammetry
File: d:\current work\al_oer\electrochemical test data\batch 2\400\B2_BEST_400#14_High_Quality-218mV.txt
Data Source:  Experiment
Instrument Model:  CHI660E
Header:
Note:

Init E (V) = 1.099

Final E (V) = 1.537

Scan Rate (V/s) = 0.010
Sample Interval (V) = 0.001
Quiet Time (sec) = 2
Sensitivity (A/V) = 0.001
Comp R (ohm) = 5.6

Results:

Channel 1:

Potential/V, Current/A
1.099,   9.270e-4
1.101,   8.068e-4
1.103,   7.109e-4
1.105,   6.331e-4
1.107,   5.688e-4
1.109,   5.156e-4
1.111,   4.711e-4
1.113,   4.338e-4
1.115,   4.012e-4
1.117,   3.739e-4
1.119,   3.505e-4
1.121,   3.300e-4
1.123,   3.117e-4
1.125,   2.956e-4
1.127,   2.818e-4
1.129,   2.688e-4
1.131,   2.572e-4
1.133,   2.475e-4
1.135,   2.388e-4
1.137,   2.306e-4
1.139,   2.231e-4
1.141,   2.167e-4
1.143,   2.106e-4
1.145,   2.051e-4
1.147,   2.002e-4
1.149,   1.957e-4
1.151,   1.915e-4
1.153,   1.875e-4
1.155,   1.839e-4
1.157,   1.809e-4
1.159,   1.781e-4
1.161,   1.749e-4
1.163,   1.725e-4
1.165,   1.704e-4
1.167,   1.683e-4
1.169,   1.664e-4
1.171,   1.647e-4
1.173,   1.632e-4
1.175,   1.616e-4
1.177,   1.600e-4
1.179,   1.587e-4
1.181,   1.576e-4
1.183,   1.568e-4
1.185,   1.558e-4
1.187,   1.551e-4
1.189,   1.541e-4
1.191,   1.537e-4
1.193,   1.525e-4
1.195,   1.515e-4
1.197,   1.510e-4
1.199,   1.505e-4
1.201,   1.498e-4
1.203,   1.495e-4
1.205,   1.488e-4
1.207,   1.485e-4
1.209,   1.482e-4
1.211,   1.477e-4
1.213,   1.476e-4
1.215,   1.471e-4
1.217,   1.468e-4
1.219,   1.468e-4
1.221,   1.467e-4
1.223,   1.463e-4
1.225,   1.463e-4
1.227,   1.462e-4
1.229,   1.462e-4
1.231,   1.460e-4
1.233,   1.459e-4
1.235,   1.458e-4
1.237,   1.459e-4
1.239,   1.458e-4
1.241,   1.458e-4
1.243,   1.455e-4
1.245,   1.457e-4
1.247,   1.458e-4
1.249,   1.456e-4
1.251,   1.457e-4
1.253,   1.458e-4
1.255,   1.459e-4
1.257,   1.459e-4
1.259,   1.458e-4
1.261,   1.460e-4
1.263,   1.459e-4
1.265,   1.459e-4
1.267,   1.460e-4
1.269,   1.462e-4
1.271,   1.463e-4
1.273,   1.464e-4
1.275,   1.463e-4
1.277,   1.466e-4
1.279,   1.466e-4
1.281,   1.468e-4
1.283,   1.469e-4
1.285,   1.470e-4
1.287,   1.473e-4
1.289,   1.473e-4
1.291,   1.473e-4
1.293,   1.476e-4
1.295,   1.478e-4
1.297,   1.479e-4
1.299,   1.482e-4
1.301,   1.483e-4
1.303,   1.484e-4
1.305,   1.486e-4
1.307,   1.487e-4
1.309,   1.491e-4
1.311,   1.495e-4
1.313,   1.497e-4
1.315,   1.499e-4
1.317,   1.504e-4
1.319,   1.508e-4
1.321,   1.511e-4
1.323,   1.514e-4
1.325,   1.522e-4
1.327,   1.524e-4
1.329,   1.529e-4
1.331,   1.532e-4
1.333,   1.540e-4
1.335,   1.544e-4
1.337,   1.550e-4
1.339,   1.556e-4
1.341,   1.565e-4
1.343,   1.570e-4
1.345,   1.577e-4
1.347,   1.585e-4
1.349,   1.596e-4
1.351,   1.608e-4
1.353,   1.620e-4
1.355,   1.632e-4
1.357,   1.650e-4
1.359,   1.667e-4
1.361,   1.687e-4
1.363,   1.708e-4
1.365,   1.730e-4
1.367,   1.758e-4
1.369,   1.789e-4
1.371,   1.824e-4
1.373,   1.866e-4
1.375,   1.913e-4
1.377,   1.967e-4
1.379,   2.022e-4
1.381,   2.091e-4
1.383,   2.169e-4
1.385,   2.254e-4
1.387,   2.352e-4
1.389,   2.466e-4
1.391,   2.594e-4
1.393,   2.738e-4
1.395,   2.897e-4
1.397,   3.080e-4
1.399,   3.280e-4
1.401,   3.498e-4
1.403,   3.741e-4
1.405,   4.018e-4
1.407,   4.316e-4
1.409,   4.643e-4
1.411,   5.001e-4
1.413,   5.391e-4
1.415,   5.816e-4
1.417,   6.272e-4
1.419,   6.763e-4
1.421,   7.287e-4
1.423,   7.859e-4
1.425,   8.463e-4
1.427,   9.099e-4
1.429,   9.815e-4
1.431,   1.056e-3
1.433,   1.134e-3
1.435,   1.219e-3
1.437,   1.307e-3
1.439,   1.401e-3
1.441,   1.503e-3
1.443,   1.606e-3
1.445,   1.717e-3
1.447,   1.833e-3
1.449,   1.950e-3
1.451,   2.075e-3
1.453,   2.204e-3
1.455,   2.343e-3
1.457,   2.484e-3
1.459,   2.629e-3
1.461,   2.774e-3
1.463,   2.931e-3
1.465,   3.093e-3
1.467,   3.258e-3
1.469,   3.432e-3
1.471,   3.606e-3
1.473,   3.785e-3
1.475,   3.967e-3
1.477,   4.156e-3
1.479,   4.385e-3
1.481,   4.568e-3
1.483,   4.773e-3
1.485,   4.967e-3
1.487,   5.165e-3
1.489,   5.410e-3
1.491,   5.627e-3
1.493,   5.812e-3
1.495,   5.999e-3
1.497,   6.197e-3
1.499,   6.606e-3
1.501,   6.815e-3
1.503,   6.979e-3
1.505,   7.164e-3
1.507,   7.430e-3
1.509,   7.591e-3
1.511,   7.747e-3
1.513,   7.892e-3
1.515,   8.081e-3
1.517,   8.561e-3
1.519,   8.725e-3
1.521,   8.933e-3
1.523,   9.038e-3
1.525,   9.141e-3
1.527,   9.262e-3
1.529,   9.409e-3
1.531,   9.508e-3
1.533,   9.874e-3
1.535,   1.004e-2
1.537,   1.006e-2