File: Experimental Records and Raw Data/batch2/final400/B2_BEST_400#13_High_Quality-233mV.txt
Jan. 14, 2023   14:38:14
Linear Sweep Voltammetry
File: d:\current work\al_oer\electrochemical test data\batch 2\400\B2_BEST_400#13_High_Quality-233mV.txt
Data Source:  Experiment
Instrument Model:  CHI660E
Header:
Note:

Init E (V) = 1.099

Final E (V) = 1.517

Scan Rate (V/s) = 0.010
Sample Interval (V) = 0.001
Quiet Time (sec) = 2
Sensitivity (A/V) = 0.001
Comp R (ohm) = 6.4

Results:

Channel 1:

Potential/V, Current/A
1.099,   3.133e-4
1.101,   2.731e-4
1.103,   2.367e-4
1.105,   2.085e-4
1.107,   1.868e-4
1.109,   1.697e-4
1.111,   1.557e-4
1.113,   1.444e-4
1.115,   1.349e-4
1.117,   1.270e-4
1.119,   1.204e-4
1.121,   1.145e-4
1.123,   1.095e-4
1.125,   1.053e-4
1.127,   1.014e-4
1.129,   9.793e-5
1.131,   9.491e-5
1.133,   9.258e-5
1.135,   9.019e-5
1.137,   8.806e-5
1.139,   8.621e-5
1.141,   8.463e-5
1.143,   8.311e-5
1.145,   8.182e-5
1.147,   8.067e-5
1.149,   7.946e-5
1.151,   7.864e-5
1.153,   7.769e-5
1.155,   7.681e-5
1.157,   7.611e-5
1.159,   7.547e-5
1.161,   7.488e-5
1.163,   7.422e-5
1.165,   7.389e-5
1.167,   7.349e-5
1.169,   7.299e-5
1.171,   7.273e-5
1.173,   7.251e-5
1.175,   7.219e-5
1.177,   7.189e-5
1.179,   7.165e-5
1.181,   7.152e-5
1.183,   7.146e-5
1.185,   7.122e-5
1.187,   7.106e-5
1.189,   7.115e-5
1.191,   7.104e-5
1.193,   7.087e-5
1.195,   7.078e-5
1.197,   7.095e-5
1.199,   7.082e-5
1.201,   7.076e-5
1.203,   7.080e-5
1.205,   7.081e-5
1.207,   7.083e-5
1.209,   7.093e-5
1.211,   7.078e-5
1.213,   7.087e-5
1.215,   7.096e-5
1.217,   7.093e-5
1.219,   7.089e-5
1.221,   7.103e-5
1.223,   7.110e-5
1.225,   7.100e-5
1.227,   7.107e-5
1.229,   7.121e-5
1.231,   7.119e-5
1.233,   7.114e-5
1.235,   7.132e-5
1.237,   7.129e-5
1.239,   7.127e-5
1.241,   7.131e-5
1.243,   7.129e-5
1.245,   7.145e-5
1.247,   7.142e-5
1.249,   7.135e-5
1.251,   7.137e-5
1.253,   7.146e-5
1.255,   7.142e-5
1.257,   7.129e-5
1.259,   7.135e-5
1.261,   7.152e-5
1.263,   7.139e-5
1.265,   7.123e-5
1.267,   7.133e-5
1.269,   7.134e-5
1.271,   7.132e-5
1.273,   7.131e-5
1.275,   7.118e-5
1.277,   7.126e-5
1.279,   7.133e-5
1.281,   7.116e-5
1.283,   7.107e-5
1.285,   7.128e-5
1.287,   7.126e-5
1.289,   7.104e-5
1.291,   7.107e-5
1.293,   7.125e-5
1.295,   7.116e-5
1.297,   7.104e-5
1.299,   7.113e-5
1.301,   7.123e-5
1.303,   7.119e-5
1.305,   7.124e-5
1.307,   7.124e-5
1.309,   7.133e-5
1.311,   7.144e-5
1.313,   7.142e-5
1.315,   7.144e-5
1.317,   7.156e-5
1.319,   7.180e-5
1.321,   7.180e-5
1.323,   7.186e-5
1.325,   7.236e-5
1.327,   7.250e-5
1.329,   7.251e-5
1.331,   7.275e-5
1.333,   7.319e-5
1.335,   7.338e-5
1.337,   7.374e-5
1.339,   7.396e-5
1.341,   7.447e-5
1.343,   7.489e-5
1.345,   7.536e-5
1.347,   7.592e-5
1.349,   7.667e-5
1.351,   7.743e-5
1.353,   7.805e-5
1.355,   7.881e-5
1.357,   7.991e-5
1.359,   8.087e-5
1.361,   8.186e-5
1.363,   8.339e-5
1.365,   8.470e-5
1.367,   8.628e-5
1.369,   8.773e-5
1.371,   8.957e-5
1.373,   9.177e-5
1.375,   9.415e-5
1.377,   9.663e-5
1.379,   9.937e-5
1.381,   1.027e-4
1.383,   1.061e-4
1.385,   1.100e-4
1.387,   1.142e-4
1.389,   1.193e-4
1.391,   1.245e-4
1.393,   1.305e-4
1.395,   1.371e-4
1.397,   1.447e-4
1.399,   1.531e-4
1.401,   1.623e-4
1.403,   1.725e-4
1.405,   1.841e-4
1.407,   1.966e-4
1.409,   2.105e-4
1.411,   2.259e-4
1.413,   2.440e-4
1.415,   2.632e-4
1.417,   2.840e-4
1.419,   3.069e-4
1.421,   3.328e-4
1.423,   3.607e-4
1.425,   3.916e-4
1.427,   4.251e-4
1.429,   4.620e-4
1.431,   5.019e-4
1.433,   5.448e-4
1.435,   5.949e-4
1.437,   6.461e-4
1.439,   7.042e-4
1.441,   7.689e-4
1.443,   8.353e-4
1.445,   9.081e-4
1.447,   9.866e-4
1.449,   1.071e-3
1.451,   1.162e-3
1.453,   1.263e-3
1.455,   1.368e-3
1.457,   1.484e-3
1.459,   1.609e-3
1.461,   1.753e-3
1.463,   1.894e-3
1.465,   2.050e-3
1.467,   2.219e-3
1.469,   2.396e-3
1.471,   2.581e-3
1.473,   2.779e-3
1.475,   2.992e-3
1.477,   3.219e-3
1.479,   3.475e-3
1.481,   3.734e-3
1.483,   4.001e-3
1.485,   4.280e-3
1.487,   4.571e-3
1.489,   4.898e-3
1.491,   5.251e-3
1.493,   5.604e-3
1.495,   5.986e-3
1.497,   6.356e-3
1.499,   6.760e-3
1.501,   7.199e-3
1.503,   7.619e-3
1.505,   8.130e-3
1.507,   8.606e-3
1.509,   9.161e-3
1.511,   9.620e-3
1.513,   1.004e-2
1.515,   1.006e-2
1.517,   1.006e-2