File: Experimental Records and Raw Data/batch2/final400/B2_BEST_400#8_Full-208mV.txt
Jan. 13, 2023   16:17:46
Linear Sweep Voltammetry
File: d:\current work\al_oer\electrochemical test data\batch 2\400\B2_BEST_400#8_Full-208mV.txt
Data Source:  Experiment
Instrument Model:  CHI660E
Header:
Note:

Init E (V) = 1.099

Final E (V) = 1.479

Scan Rate (V/s) = 0.010
Sample Interval (V) = 0.001
Quiet Time (sec) = 2
Sensitivity (A/V) = 0.001
Comp R (ohm) = 5.6

Results:

Channel 1:

Potential/V, Current/A
1.099,   1.048e-4
1.101,   1.137e-4
1.103,   1.034e-4
1.105,   9.554e-5
1.107,   9.015e-5
1.109,   8.551e-5
1.111,   8.175e-5
1.113,   7.879e-5
1.115,   7.630e-5
1.117,   7.450e-5
1.119,   7.304e-5
1.121,   7.143e-5
1.123,   7.030e-5
1.125,   6.959e-5
1.127,   6.889e-5
1.129,   6.807e-5
1.131,   6.749e-5
1.133,   6.744e-5
1.135,   6.698e-5
1.137,   6.649e-5
1.139,   6.632e-5
1.141,   6.620e-5
1.143,   6.599e-5
1.145,   6.598e-5
1.147,   6.574e-5
1.149,   6.597e-5
1.151,   6.586e-5
1.153,   6.565e-5
1.155,   6.568e-5
1.157,   6.595e-5
1.159,   6.586e-5
1.161,   6.587e-5
1.163,   6.585e-5
1.165,   6.643e-5
1.167,   6.633e-5
1.169,   6.615e-5
1.171,   6.679e-5
1.173,   6.686e-5
1.175,   6.700e-5
1.177,   6.693e-5
1.179,   6.707e-5
1.181,   6.744e-5
1.183,   6.766e-5
1.185,   6.756e-5
1.187,   6.776e-5
1.189,   6.819e-5
1.191,   6.826e-5
1.193,   6.827e-5
1.195,   6.842e-5
1.197,   6.896e-5
1.199,   6.911e-5
1.201,   6.893e-5
1.203,   6.933e-5
1.205,   6.965e-5
1.207,   6.974e-5
1.209,   6.992e-5
1.211,   6.980e-5
1.213,   7.034e-5
1.215,   7.036e-5
1.217,   7.024e-5
1.219,   7.042e-5
1.221,   7.091e-5
1.223,   7.082e-5
1.225,   7.095e-5
1.227,   7.094e-5
1.229,   7.154e-5
1.231,   7.135e-5
1.233,   7.120e-5
1.235,   7.166e-5
1.237,   7.179e-5
1.239,   7.159e-5
1.241,   7.172e-5
1.243,   7.172e-5
1.245,   7.210e-5
1.247,   7.198e-5
1.249,   7.192e-5
1.251,   7.185e-5
1.253,   7.229e-5
1.255,   7.209e-5
1.257,   7.197e-5
1.259,   7.188e-5
1.261,   7.241e-5
1.263,   7.228e-5
1.265,   7.198e-5
1.267,   7.218e-5
1.269,   7.251e-5
1.271,   7.236e-5
1.273,   7.238e-5
1.275,   7.217e-5
1.277,   7.269e-5
1.279,   7.256e-5
1.281,   7.221e-5
1.283,   7.224e-5
1.285,   7.251e-5
1.287,   7.272e-5
1.289,   7.256e-5
1.291,   7.255e-5
1.293,   7.290e-5
1.295,   7.312e-5
1.297,   7.292e-5
1.299,   7.301e-5
1.301,   7.349e-5
1.303,   7.346e-5
1.305,   7.307e-5
1.307,   7.371e-5
1.309,   7.322e-5
1.311,   7.424e-5
1.313,   7.309e-5
1.315,   7.474e-5
1.317,   7.421e-5
1.319,   7.400e-5
1.321,   7.542e-5
1.323,   7.458e-5
1.325,   7.500e-5
1.327,   7.651e-5
1.329,   7.603e-5
1.331,   7.552e-5
1.333,   7.584e-5
1.335,   7.676e-5
1.337,   7.797e-5
1.339,   7.851e-5
1.341,   7.918e-5
1.343,   7.938e-5
1.345,   7.972e-5
1.347,   8.017e-5
1.349,   8.025e-5
1.351,   8.133e-5
1.353,   8.425e-5
1.355,   8.497e-5
1.357,   8.473e-5
1.359,   8.887e-5
1.361,   8.749e-5
1.363,   9.221e-5
1.365,   9.201e-5
1.367,   9.521e-5
1.369,   9.889e-5
1.371,   1.000e-4
1.373,   1.041e-4
1.375,   1.070e-4
1.377,   1.129e-4
1.379,   1.180e-4
1.381,   1.220e-4
1.383,   1.300e-4
1.385,   1.384e-4
1.387,   1.463e-4
1.389,   1.598e-4
1.391,   1.669e-4
1.393,   1.779e-4
1.395,   1.901e-4
1.397,   2.192e-4
1.399,   2.300e-4
1.401,   2.485e-4
1.403,   2.762e-4
1.405,   3.064e-4
1.407,   3.378e-4
1.409,   3.780e-4
1.411,   4.152e-4
1.413,   4.590e-4
1.415,   5.175e-4
1.417,   5.785e-4
1.419,   6.385e-4
1.421,   7.162e-4
1.423,   8.034e-4
1.425,   8.898e-4
1.427,   9.976e-4
1.429,   1.116e-3
1.431,   1.238e-3
1.433,   1.381e-3
1.435,   1.543e-3
1.437,   1.719e-3
1.439,   1.915e-3
1.441,   2.129e-3
1.443,   2.371e-3
1.445,   2.631e-3
1.447,   2.913e-3
1.449,   3.233e-3
1.451,   3.579e-3
1.453,   3.946e-3
1.455,   4.371e-3
1.457,   4.803e-3
1.459,   5.285e-3
1.461,   5.780e-3
1.463,   6.295e-3
1.465,   6.866e-3
1.467,   7.507e-3
1.469,   8.170e-3
1.471,   8.845e-3
1.473,   9.498e-3
1.475,   1.006e-2
1.477,   1.006e-2
1.479,   1.006e-2