File: Experimental Records and Raw Data/batch2/final400/B2_VARIANCE_400#6_High_Quality-350mV.txt
Jan. 14, 2023   13:32:12
Linear Sweep Voltammetry
File: d:\current work\al_oer\electrochemical test data\batch 2\400\B2_VARIANCE_400#6_High_Quality-350mV.txt
Data Source:  Experiment
Instrument Model:  CHI660E
Header:
Note:

Init E (V) = 1.086

Final E (V) = 1.685

Scan Rate (V/s) = 0.010
Sample Interval (V) = 0.001
Quiet Time (sec) = 2
Sensitivity (A/V) = 0.001
Comp R (ohm) = 5.5

Results:

Channel 1:
Ep = 1.466V
ip = 2.064e-3A
Ah = 4.659e-2C

Potential/V, Current/A
1.086, 	0.00003107
1.088, 	0.00002788
1.09, 	0.00002517
1.092, 	0.00002288
1.094, 	0.00002122
1.096, 	0.0000197
1.098, 	0.00001845
1.1, 	0.00001731
1.102, 	0.00001646
1.104, 	0.00001577
1.106, 	0.0000151
1.108, 	0.00001449
1.11, 	0.00001401
1.112, 	0.00001364
1.114, 	0.00001327
1.116, 	0.00001292
1.118, 	0.00001254
1.12, 	0.00001238
1.122, 	0.00001211
1.124, 	0.00001189
1.126, 	0.00001175
1.128, 	0.00001163
1.13, 	0.00001142
1.132, 	0.00001124
1.134, 	0.00001114
1.136, 	0.00001102
1.138, 	0.00001092
1.14, 	0.00001085
1.142, 	0.00001078
1.144, 	0.00001071
1.146, 	0.00001065
1.148, 	0.00001056
1.15, 	0.00001055
1.152, 	0.00001057
1.154, 	0.00001054
1.156, 	0.00001054
1.158, 	0.0000105
1.16, 	0.00001053
1.162, 	0.00001049
1.164, 	0.0000105
1.166, 	0.00001052
1.168, 	0.00001054
1.17, 	0.00001058
1.172, 	0.00001057
1.174, 	0.00001057
1.176, 	0.00001062
1.178, 	0.00001067
1.18, 	0.0000107
1.182, 	0.00001074
1.184, 	0.0000108
1.186, 	0.0000109
1.188, 	0.00001088
1.19, 	0.00001095
1.192, 	0.00001099
1.194, 	0.00001098
1.196, 	0.00001105
1.198, 	0.00001109
1.2, 	0.00001118
1.202, 	0.00001122
1.204, 	0.00001125
1.206, 	0.0000113
1.208, 	0.00001139
1.21, 	0.00001144
1.212, 	0.0000115
1.214, 	0.0000115
1.216, 	0.0000117
1.218, 	0.00001172
1.22, 	0.00001182
1.222, 	0.00001186
1.224, 	0.00001194
1.226, 	0.00001199
1.228, 	0.00001213
1.23, 	0.00001218
1.232, 	0.00001223
1.234, 	0.00001241
1.236, 	0.00001247
1.238, 	0.00001254
1.24, 	0.00001255
1.242, 	0.00001267
1.244, 	0.00001269
1.246, 	0.00001276
1.248, 	0.00001286
1.25, 	0.00001298
1.252, 	0.00001302
1.254, 	0.00001308
1.256, 	0.00001316
1.258, 	0.00001323
1.26, 	0.00001331
1.262, 	0.00001338
1.264, 	0.00001346
1.266, 	0.00001352
1.268, 	0.00001365
1.27, 	0.00001376
1.272, 	0.00001381
1.274, 	0.00001388
1.276, 	0.00001392
1.278, 	0.000014
1.28, 	0.00001411
1.282, 	0.00001427
1.284, 	0.00001432
1.286, 	0.0000144
1.288, 	0.00001449
1.29, 	0.00001456
1.292, 	0.00001463
1.294, 	0.00001472
1.296, 	0.00001485
1.298, 	0.00001495
1.3, 	0.00001511
1.302, 	0.00001521
1.304, 	0.00001525
1.306, 	0.00001538
1.308, 	0.00001548
1.31, 	0.00001556
1.312, 	0.00001578
1.314, 	0.00001594
1.316, 	0.00001596
1.318, 	0.00001613
1.32, 	0.00001623
1.322, 	0.00001631
1.324, 	0.00001642
1.326, 	0.00001657
1.328, 	0.00001673
1.33, 	0.00001689
1.332, 	0.00001701
1.334, 	0.00001721
1.336, 	0.00001741
1.338, 	0.0000176
1.34, 	0.00001771
1.342, 	0.00001794
1.344, 	0.00001818
1.346, 	0.0000183
1.348, 	0.00001847
1.35, 	0.00001872
1.352, 	0.000019
1.354, 	0.0000193
1.356, 	0.00001951
1.358, 	0.00001987
1.36, 	0.00002022
1.362, 	0.00002057
1.364, 	0.00002092
1.366, 	0.00002128
1.368, 	0.00002171
1.37, 	0.00002226
1.372, 	0.00002287
1.374, 	0.00002342
1.376, 	0.00002404
1.378, 	0.00002472
1.38, 	0.0000255
1.382, 	0.00002631
1.384, 	0.00002731
1.386, 	0.00002836
1.388, 	0.00002961
1.39, 	0.00003088
1.392, 	0.0000324
1.394, 	0.00003391
1.396, 	0.00003594
1.398, 	0.00003749
1.4, 	0.00003943
1.402, 	0.00004164
1.404, 	0.0000441
1.406, 	0.00004703
1.408, 	0.00004975
1.41, 	0.00005271
1.412, 	0.00005628
1.414, 	0.00005992
1.416, 	0.00006384
1.418, 	0.00006807
1.42, 	0.0000727
1.422, 	0.0000779
1.424, 	0.00008318
1.426, 	0.00008871
1.428, 	0.00009486
1.43, 	0.0001014
1.432, 	0.0001083
1.434, 	0.0001158
1.436, 	0.0001237
1.438, 	0.0001321
1.44, 	0.000141
1.442, 	0.0001505
1.444, 	0.0001607
1.446, 	0.0001712
1.448, 	0.0001822
1.45, 	0.0001943
1.452, 	0.0002068
1.454, 	0.0002199
1.456, 	0.0002342
1.458, 	0.0002491
1.46, 	0.0002647
1.462, 	0.0002812
1.464, 	0.0002986
1.466, 	0.0003171
1.468, 	0.0003361
1.47, 	0.0003559
1.472, 	0.0003774
1.474, 	0.0003995
1.476, 	0.000422
1.478, 	0.000446
1.48, 	0.0004711
1.482, 	0.0004969
1.484, 	0.0005235
1.486, 	0.0005513
1.488, 	0.0005797
1.49, 	0.000609
1.492, 	0.0006392
1.494, 	0.0006702
1.496, 	0.0007018
1.498, 	0.0007331
1.5, 	0.0007665
1.502, 	0.0008008
1.504, 	0.000835
1.506, 	0.0008685
1.508, 	0.0009041
1.51, 	0.0009388
1.512, 	0.000975
1.514, 	0.001011
1.516, 	0.001047
1.518, 	0.001082
1.52, 	0.001116
1.522, 	0.00115
1.524, 	0.001184
1.526, 	0.001219
1.528, 	0.001252
1.53, 	0.001286
1.532, 	0.001318
1.534, 	0.001349
1.536, 	0.001381
1.538, 	0.001413
1.54, 	0.001445
1.542, 	0.001473
1.544, 	0.001504
1.546, 	0.001532
1.548, 	0.00156
1.55, 	0.001587
1.552, 	0.001614
1.554, 	0.001641
1.556, 	0.001669
1.558, 	0.001695
1.56, 	0.001719
1.562, 	0.001743
1.564, 	0.001766
1.566, 	0.001785
1.568, 	0.001806
1.57, 	0.00183
1.572, 	0.001855
1.574, 	0.001877
1.576, 	0.001898
1.578, 	0.001922
1.58, 	0.001953
1.582, 	0.001973
1.584, 	0.00199
1.586, 	0.002009
1.588, 	0.002026
1.59, 	0.002042
1.592, 	0.00206
1.594, 	0.002077
1.596, 	0.002089
1.598, 	0.002104
1.6, 	0.002119
1.602, 	0.002134
1.604, 	0.002148
1.606, 	0.002162
1.608, 	0.002174
1.61, 	0.002189
1.612, 	0.002201
1.614, 	0.002212
1.616, 	0.00222
1.618, 	0.002234
1.62, 	0.002245
1.622, 	0.002256
1.624, 	0.002265
1.626, 	0.002277
1.628, 	0.002285
1.63, 	0.002294
1.632, 	0.002306
1.634, 	0.002307
1.636, 	0.002313
1.638, 	0.002319
1.64, 	0.002319
1.642, 	0.002317
1.644, 	0.002314
1.646, 	0.002315
1.648, 	0.002316
1.65, 	0.002316
1.652, 	0.002316
1.654, 	0.002316
1.656, 	0.002307
1.658, 	0.002299
1.66, 	0.002294
1.662, 	0.002283
1.664, 	0.002274
1.666, 	0.002265
1.668, 	0.002256
1.67, 	0.002251
1.672, 	0.002243
1.674, 	0.002232
1.676, 	0.002219
1.678, 	0.002208
1.68, 	0.002194
1.682, 	0.002179
1.684, 	0.002163
1.685, 	0.002154