File: Experimental Records and Raw Data/batch2/final400/B2_VARIANCE_400#3_Full-271mV.txt
Jan. 14, 2023   15:45:56
Linear Sweep Voltammetry
File: d:\current work\al_oer\electrochemical test data\batch 2\400\B2_VARIANCE_400#3_Full-271mV.txt
Data Source:  Experiment
Instrument Model:  CHI660E
Header:
Note:

Init E (V) = 1.098

Final E (V) = 1.591

Scan Rate (V/s) = 0.010
Sample Interval (V) = 0.001
Quiet Time (sec) = 2
Sensitivity (A/V) = 0.001
Comp R (ohm) = 6.1

Results:

Channel 1:

Potential/V, Current/A
1.098,   6.567e-5
1.100,   5.811e-5
1.102,   5.070e-5
1.104,   4.517e-5
1.106,   4.100e-5
1.108,   3.754e-5
1.110,   3.497e-5
1.112,   3.270e-5
1.114,   3.091e-5
1.116,   2.944e-5
1.118,   2.822e-5
1.120,   2.714e-5
1.122,   2.625e-5
1.124,   2.537e-5
1.126,   2.462e-5
1.128,   2.396e-5
1.130,   2.343e-5
1.132,   2.303e-5
1.134,   2.260e-5
1.136,   2.221e-5
1.138,   2.190e-5
1.140,   2.163e-5
1.142,   2.134e-5
1.144,   2.111e-5
1.146,   2.090e-5
1.148,   2.076e-5
1.150,   2.062e-5
1.152,   2.044e-5
1.154,   2.035e-5
1.156,   2.023e-5
1.158,   2.010e-5
1.160,   2.001e-5
1.162,   1.990e-5
1.164,   1.992e-5
1.166,   1.983e-5
1.168,   1.977e-5
1.170,   1.979e-5
1.172,   1.978e-5
1.174,   1.973e-5
1.176,   1.975e-5
1.178,   1.968e-5
1.180,   1.974e-5
1.182,   1.973e-5
1.184,   1.970e-5
1.186,   1.974e-5
1.188,   1.978e-5
1.190,   1.981e-5
1.192,   1.980e-5
1.194,   1.979e-5
1.196,   1.991e-5
1.198,   1.987e-5
1.200,   1.992e-5
1.202,   1.999e-5
1.204,   2.006e-5
1.206,   2.002e-5
1.208,   2.008e-5
1.210,   2.009e-5
1.212,   2.016e-5
1.214,   2.024e-5
1.216,   2.026e-5
1.218,   2.034e-5
1.220,   2.043e-5
1.222,   2.047e-5
1.224,   2.050e-5
1.226,   2.054e-5
1.228,   2.062e-5
1.230,   2.068e-5
1.232,   2.066e-5
1.234,   2.076e-5
1.236,   2.085e-5
1.238,   2.089e-5
1.240,   2.096e-5
1.242,   2.098e-5
1.244,   2.110e-5
1.246,   2.116e-5
1.248,   2.120e-5
1.250,   2.128e-5
1.252,   2.136e-5
1.254,   2.136e-5
1.256,   2.141e-5
1.258,   2.142e-5
1.260,   2.155e-5
1.262,   2.162e-5
1.264,   2.169e-5
1.266,   2.171e-5
1.268,   2.184e-5
1.270,   2.186e-5
1.272,   2.193e-5
1.274,   2.194e-5
1.276,   2.206e-5
1.278,   2.213e-5
1.280,   2.215e-5
1.282,   2.225e-5
1.284,   2.232e-5
1.286,   2.240e-5
1.288,   2.242e-5
1.290,   2.250e-5
1.292,   2.266e-5
1.294,   2.269e-5
1.296,   2.270e-5
1.298,   2.283e-5
1.300,   2.291e-5
1.302,   2.293e-5
1.304,   2.309e-5
1.306,   2.322e-5
1.308,   2.325e-5
1.310,   2.333e-5
1.312,   2.344e-5
1.314,   2.349e-5
1.316,   2.365e-5
1.318,   2.374e-5
1.320,   2.388e-5
1.322,   2.393e-5
1.324,   2.414e-5
1.326,   2.419e-5
1.328,   2.428e-5
1.330,   2.442e-5
1.332,   2.457e-5
1.334,   2.471e-5
1.336,   2.488e-5
1.338,   2.502e-5
1.340,   2.515e-5
1.342,   2.530e-5
1.344,   2.552e-5
1.346,   2.574e-5
1.348,   2.600e-5
1.350,   2.625e-5
1.352,   2.644e-5
1.354,   2.670e-5
1.356,   2.704e-5
1.358,   2.736e-5
1.360,   2.766e-5
1.362,   2.812e-5
1.364,   2.845e-5
1.366,   2.892e-5
1.368,   2.939e-5
1.370,   2.991e-5
1.372,   3.056e-5
1.374,   3.113e-5
1.376,   3.181e-5
1.378,   3.256e-5
1.380,   3.340e-5
1.382,   3.425e-5
1.384,   3.523e-5
1.386,   3.625e-5
1.388,   3.748e-5
1.390,   3.869e-5
1.392,   4.021e-5
1.394,   4.162e-5
1.396,   4.331e-5
1.398,   4.531e-5
1.400,   4.743e-5
1.402,   4.978e-5
1.404,   5.241e-5
1.406,   5.518e-5
1.408,   5.846e-5
1.410,   6.190e-5
1.412,   6.585e-5
1.414,   7.016e-5
1.416,   7.484e-5
1.418,   8.020e-5
1.420,   8.609e-5
1.422,   9.241e-5
1.424,   9.931e-5
1.426,   1.070e-4
1.428,   1.155e-4
1.430,   1.248e-4
1.432,   1.350e-4
1.434,   1.461e-4
1.436,   1.584e-4
1.438,   1.717e-4
1.440,   1.862e-4
1.442,   2.019e-4
1.444,   2.191e-4
1.446,   2.379e-4
1.448,   2.582e-4
1.450,   2.803e-4
1.452,   3.044e-4
1.454,   3.303e-4
1.456,   3.583e-4
1.458,   3.883e-4
1.460,   4.211e-4
1.462,   4.565e-4
1.464,   4.945e-4
1.466,   5.353e-4
1.468,   5.795e-4
1.470,   6.265e-4
1.472,   6.763e-4
1.474,   7.299e-4
1.476,   7.869e-4
1.478,   8.478e-4
1.480,   9.122e-4
1.482,   9.811e-4
1.484,   1.059e-3
1.486,   1.138e-3
1.488,   1.220e-3
1.490,   1.307e-3
1.492,   1.399e-3
1.494,   1.496e-3
1.496,   1.597e-3
1.498,   1.708e-3
1.500,   1.822e-3
1.502,   1.940e-3
1.504,   2.063e-3
1.506,   2.187e-3
1.508,   2.318e-3
1.510,   2.455e-3
1.512,   2.599e-3
1.514,   2.747e-3
1.516,   2.902e-3
1.518,   3.066e-3
1.520,   3.231e-3
1.522,   3.397e-3
1.524,   3.572e-3
1.526,   3.821e-3
1.528,   4.049e-3
1.530,   4.244e-3
1.532,   4.445e-3
1.534,   4.653e-3
1.536,   4.858e-3
1.538,   5.071e-3
1.540,   5.295e-3
1.542,   5.528e-3
1.544,   5.774e-3
1.546,   5.996e-3
1.548,   6.247e-3
1.550,   6.525e-3
1.552,   6.917e-3
1.554,   7.677e-3
1.556,   7.920e-3
1.558,   8.177e-3
1.560,   8.431e-3
1.562,   8.754e-3
1.564,   9.024e-3
1.566,   9.393e-3
1.568,   9.918e-3
1.570,   1.006e-2
1.572,   1.006e-2
1.574,   1.006e-2
1.576,   1.006e-2
1.578,   1.006e-2
1.580,   1.006e-2
1.582,   1.006e-2
1.584,   1.006e-2
1.586,   1.006e-2
1.588,   1.006e-2
1.590,   1.006e-2
1.591,   1.006e-2