File: Experimental Records, Raw Data, and Supplementary Notes and Figures/batch4/final400/B4_BEST_400_#4_High_Quality(#20)-198mV.txt
Mar. 27, 2023   15:38:27
Linear Sweep Voltammetry
File: d:\current work\al_oer\electrochemical test data\batch 4\400\B4_BEST_400_#4_High_Quality(#20)-198mV.txt
Data Source:  Experiment
Instrument Model:  CHI660E
Header:
Note:

Init E (V) = 1.047

Final E (V) = 1.446

Scan Rate (V/s) = 0.010
Sample Interval (V) = 0.001
Quiet Time (sec) = 2
Sensitivity (A/V) = 0.001
Comp R (ohm) = 5.1

Results:

Channel 1:

Potential/V, Current/A
1.047,   4.064e-5
1.049,   4.255e-5
1.051,   3.916e-5
1.053,   3.663e-5
1.055,   3.463e-5
1.057,   3.295e-5
1.059,   3.147e-5
1.061,   3.031e-5
1.063,   2.932e-5
1.065,   2.855e-5
1.067,   2.794e-5
1.069,   2.724e-5
1.071,   2.672e-5
1.073,   2.634e-5
1.075,   2.592e-5
1.077,   2.557e-5
1.079,   2.530e-5
1.081,   2.524e-5
1.083,   2.494e-5
1.085,   2.470e-5
1.087,   2.462e-5
1.089,   2.456e-5
1.091,   2.447e-5
1.093,   2.443e-5
1.095,   2.433e-5
1.097,   2.440e-5
1.099,   2.436e-5
1.101,   2.433e-5
1.103,   2.436e-5
1.105,   2.452e-5
1.107,   2.452e-5
1.109,   2.453e-5
1.111,   2.460e-5
1.113,   2.482e-5
1.115,   2.480e-5
1.117,   2.486e-5
1.119,   2.506e-5
1.121,   2.515e-5
1.123,   2.526e-5
1.125,   2.530e-5
1.127,   2.537e-5
1.129,   2.566e-5
1.131,   2.576e-5
1.133,   2.576e-5
1.135,   2.595e-5
1.137,   2.615e-5
1.139,   2.624e-5
1.141,   2.633e-5
1.143,   2.641e-5
1.145,   2.666e-5
1.147,   2.674e-5
1.149,   2.680e-5
1.151,   2.697e-5
1.153,   2.718e-5
1.155,   2.724e-5
1.157,   2.734e-5
1.159,   2.731e-5
1.161,   2.759e-5
1.163,   2.768e-5
1.165,   2.766e-5
1.167,   2.777e-5
1.169,   2.794e-5
1.171,   2.803e-5
1.173,   2.801e-5
1.175,   2.805e-5
1.177,   2.827e-5
1.179,   2.831e-5
1.181,   2.829e-5
1.183,   2.845e-5
1.185,   2.849e-5
1.187,   2.847e-5
1.189,   2.847e-5
1.191,   2.854e-5
1.193,   2.868e-5
1.195,   2.872e-5
1.197,   2.863e-5
1.199,   2.864e-5
1.201,   2.882e-5
1.203,   2.879e-5
1.205,   2.880e-5
1.207,   2.877e-5
1.209,   2.896e-5
1.211,   2.886e-5
1.213,   2.883e-5
1.215,   2.900e-5
1.217,   2.897e-5
1.219,   2.900e-5
1.221,   2.905e-5
1.223,   2.901e-5
1.225,   2.910e-5
1.227,   2.920e-5
1.229,   2.913e-5
1.231,   2.913e-5
1.233,   2.932e-5
1.235,   2.925e-5
1.237,   2.928e-5
1.239,   2.929e-5
1.241,   2.950e-5
1.243,   2.952e-5
1.245,   2.947e-5
1.247,   2.960e-5
1.249,   2.981e-5
1.251,   2.979e-5
1.253,   2.986e-5
1.255,   2.994e-5
1.257,   3.021e-5
1.259,   3.031e-5
1.261,   3.032e-5
1.263,   3.046e-5
1.265,   3.080e-5
1.267,   3.081e-5
1.269,   3.096e-5
1.271,   3.117e-5
1.273,   3.164e-5
1.275,   3.167e-5
1.277,   3.183e-5
1.279,   3.211e-5
1.281,   3.248e-5
1.283,   3.278e-5
1.285,   3.312e-5
1.287,   3.332e-5
1.289,   3.388e-5
1.291,   3.422e-5
1.293,   3.456e-5
1.295,   3.509e-5
1.297,   3.569e-5
1.299,   3.616e-5
1.301,   3.662e-5
1.303,   3.723e-5
1.305,   3.798e-5
1.307,   3.859e-5
1.309,   3.924e-5
1.311,   4.026e-5
1.313,   4.122e-5
1.315,   4.214e-5
1.317,   4.315e-5
1.319,   4.425e-5
1.321,   4.573e-5
1.323,   4.708e-5
1.325,   4.843e-5
1.327,   5.007e-5
1.329,   5.194e-5
1.331,   5.382e-5
1.333,   5.588e-5
1.335,   5.805e-5
1.337,   6.094e-5
1.339,   6.349e-5
1.341,   6.645e-5
1.343,   6.981e-5
1.345,   7.343e-5
1.347,   7.745e-5
1.349,   8.190e-5
1.351,   8.651e-5
1.353,   9.185e-5
1.355,   9.749e-5
1.357,   1.036e-4
1.359,   1.105e-4
1.361,   1.184e-4
1.363,   1.267e-4
1.365,   1.357e-4
1.367,   1.456e-4
1.369,   1.571e-4
1.371,   1.692e-4
1.373,   1.824e-4
1.375,   1.971e-4
1.377,   2.135e-4
1.379,   2.313e-4
1.381,   2.509e-4
1.383,   2.724e-4
1.385,   2.964e-4
1.387,   3.225e-4
1.389,   3.509e-4
1.391,   3.823e-4
1.393,   4.170e-4
1.395,   4.546e-4
1.397,   4.957e-4
1.399,   5.405e-4
1.401,   5.902e-4
1.403,   6.442e-4
1.405,   7.020e-4
1.407,   7.659e-4
1.409,   8.350e-4
1.411,   9.110e-4
1.413,   9.918e-4
1.415,   1.080e-3
1.417,   1.177e-3
1.419,   1.281e-3
1.421,   1.390e-3
1.423,   1.511e-3
1.425,   1.640e-3
1.427,   1.776e-3
1.429,   1.929e-3
1.431,   2.090e-3
1.433,   2.257e-3
1.435,   2.440e-3
1.437,   2.633e-3
1.439,   2.848e-3
1.441,   3.057e-3
1.443,   3.293e-3
1.445,   3.533e-3
1.446,   3.653e-3