File: Experimental Records, Raw Data, and Supplementary Notes and Figures/batch4/final400/B4_BEST_400_#8_Full-212mV.txt
Mar. 27, 2023   16:46:41
Linear Sweep Voltammetry
File: d:\current work\al_oer\electrochemical test data\batch 4\400\B4_BEST_400_#8_Full-212mV.txt
Data Source:  Experiment
Instrument Model:  CHI660E
Header:
Note:

Init E (V) = 1.080

Final E (V) = 1.479

Scan Rate (V/s) = 0.010
Sample Interval (V) = 0.001
Quiet Time (sec) = 2
Sensitivity (A/V) = 0.001
Comp R (ohm) = 6.5

Results:

Channel 1:

Potential/V, Current/A
1.080,   1.520e-4
1.082,   1.423e-4
1.084,   1.286e-4
1.086,   1.174e-4
1.088,   1.093e-4
1.090,   1.018e-4
1.092,   9.533e-5
1.094,   9.033e-5
1.096,   8.606e-5
1.098,   8.253e-5
1.100,   7.851e-5
1.102,   7.499e-5
1.104,   7.218e-5
1.106,   6.998e-5
1.108,   6.779e-5
1.110,   6.758e-5
1.112,   6.451e-5
1.114,   6.280e-5
1.116,   6.116e-5
1.118,   5.970e-5
1.120,   5.854e-5
1.122,   5.767e-5
1.124,   5.669e-5
1.126,   5.580e-5
1.128,   5.514e-5
1.130,   5.434e-5
1.132,   5.359e-5
1.134,   5.291e-5
1.136,   5.230e-5
1.138,   5.196e-5
1.140,   5.141e-5
1.142,   5.091e-5
1.144,   5.058e-5
1.146,   5.049e-5
1.148,   5.008e-5
1.150,   4.984e-5
1.152,   4.976e-5
1.154,   4.942e-5
1.156,   4.913e-5
1.158,   4.899e-5
1.160,   4.868e-5
1.162,   4.876e-5
1.164,   4.865e-5
1.166,   4.847e-5
1.168,   4.834e-5
1.170,   4.844e-5
1.172,   4.841e-5
1.174,   4.832e-5
1.176,   4.833e-5
1.178,   4.833e-5
1.180,   4.828e-5
1.182,   4.822e-5
1.184,   4.820e-5
1.186,   4.829e-5
1.188,   4.826e-5
1.190,   4.826e-5
1.192,   4.823e-5
1.194,   4.834e-5
1.196,   4.825e-5
1.198,   4.825e-5
1.200,   4.825e-5
1.202,   4.839e-5
1.204,   4.849e-5
1.206,   4.839e-5
1.208,   4.833e-5
1.210,   4.836e-5
1.212,   4.833e-5
1.214,   4.825e-5
1.216,   4.838e-5
1.218,   4.843e-5
1.220,   4.854e-5
1.222,   4.846e-5
1.224,   4.838e-5
1.226,   4.839e-5
1.228,   4.842e-5
1.230,   4.842e-5
1.232,   4.819e-5
1.234,   4.830e-5
1.236,   4.817e-5
1.238,   4.801e-5
1.240,   4.797e-5
1.242,   4.809e-5
1.244,   4.796e-5
1.246,   4.787e-5
1.248,   4.787e-5
1.250,   4.788e-5
1.252,   4.781e-5
1.254,   4.764e-5
1.256,   4.750e-5
1.258,   4.775e-5
1.260,   4.761e-5
1.262,   4.742e-5
1.264,   4.742e-5
1.266,   4.747e-5
1.268,   4.753e-5
1.270,   4.735e-5
1.272,   4.730e-5
1.274,   4.749e-5
1.276,   4.741e-5
1.278,   4.727e-5
1.280,   4.734e-5
1.282,   4.752e-5
1.284,   4.740e-5
1.286,   4.742e-5
1.288,   4.736e-5
1.290,   4.753e-5
1.292,   4.757e-5
1.294,   4.757e-5
1.296,   4.764e-5
1.298,   4.781e-5
1.300,   4.797e-5
1.302,   4.792e-5
1.304,   4.803e-5
1.306,   4.842e-5
1.308,   4.844e-5
1.310,   4.873e-5
1.312,   4.892e-5
1.314,   4.915e-5
1.316,   4.934e-5
1.318,   4.968e-5
1.320,   4.990e-5
1.322,   5.041e-5
1.324,   5.082e-5
1.326,   5.109e-5
1.328,   5.173e-5
1.330,   5.222e-5
1.332,   5.295e-5
1.334,   5.363e-5
1.336,   5.421e-5
1.338,   5.522e-5
1.340,   5.605e-5
1.342,   5.710e-5
1.344,   5.859e-5
1.346,   5.956e-5
1.348,   6.078e-5
1.350,   6.239e-5
1.352,   6.408e-5
1.354,   6.618e-5
1.356,   6.839e-5
1.358,   7.070e-5
1.360,   7.338e-5
1.362,   7.667e-5
1.364,   8.030e-5
1.366,   8.387e-5
1.368,   8.813e-5
1.370,   9.322e-5
1.372,   9.843e-5
1.374,   1.045e-4
1.376,   1.112e-4
1.378,   1.189e-4
1.380,   1.276e-4
1.382,   1.372e-4
1.384,   1.476e-4
1.386,   1.597e-4
1.388,   1.728e-4
1.390,   1.873e-4
1.392,   2.034e-4
1.394,   2.234e-4
1.396,   2.421e-4
1.398,   2.641e-4
1.400,   2.885e-4
1.402,   3.156e-4
1.404,   3.453e-4
1.406,   3.780e-4
1.408,   4.138e-4
1.410,   4.537e-4
1.412,   4.977e-4
1.414,   5.450e-4
1.416,   5.962e-4
1.418,   6.532e-4
1.420,   7.163e-4
1.422,   7.836e-4
1.424,   8.569e-4
1.426,   9.385e-4
1.428,   1.027e-3
1.430,   1.120e-3
1.432,   1.226e-3
1.434,   1.336e-3
1.436,   1.461e-3
1.438,   1.588e-3
1.440,   1.731e-3
1.442,   1.885e-3
1.444,   2.049e-3
1.446,   2.225e-3
1.448,   2.413e-3
1.450,   2.618e-3
1.452,   2.829e-3
1.454,   3.062e-3
1.456,   3.303e-3
1.458,   3.566e-3
1.460,   3.844e-3
1.462,   4.142e-3
1.464,   4.453e-3
1.466,   4.782e-3
1.468,   5.146e-3
1.470,   5.527e-3
1.472,   5.955e-3
1.474,   6.455e-3
1.476,   6.928e-3
1.478,   7.771e-3
1.479,   8.245e-3