File: Experimental Records, Raw Data, and Supplementary Notes and Figures/batch4/final400/B4_BEST_400_#1_High_Quality(#17)-228mV.txt
Mar. 27, 2023   14:28:26
Linear Sweep Voltammetry
File: d:\current work\al_oer\electrochemical test data\batch 4\400\B4_BEST_400_#1_High_Quality(#17)-228mV.txt
Data Source:  Experiment
Instrument Model:  CHI660E
Header:
Note:

Init E (V) = 1.087

Final E (V) = 1.586

Scan Rate (V/s) = 0.010
Sample Interval (V) = 0.001
Quiet Time (sec) = 2
Sensitivity (A/V) = 0.001
Comp R (ohm) = 6.7

Results:

Channel 1:
Ep = 1.317V
ip = 1.005e-2A
Ah = 5.517e-2C

Potential/V, Current/A
1.087,   -2.755e-6
1.089,   6.393e-7
1.091,   1.364e-6
1.093,   1.940e-6
1.095,   2.429e-6
1.097,   2.812e-6
1.099,   3.155e-6
1.101,   3.439e-6
1.103,   3.664e-6
1.105,   3.932e-6
1.107,   4.134e-6
1.109,   4.279e-6
1.111,   4.490e-6
1.113,   4.625e-6
1.115,   4.742e-6
1.117,   4.875e-6
1.119,   4.960e-6
1.121,   5.126e-6
1.123,   5.194e-6
1.125,   5.265e-6
1.127,   5.379e-6
1.129,   5.521e-6
1.131,   5.524e-6
1.133,   5.638e-6
1.135,   5.714e-6
1.137,   5.789e-6
1.139,   5.882e-6
1.141,   5.910e-6
1.143,   5.983e-6
1.145,   6.102e-6
1.147,   6.161e-6
1.149,   6.185e-6
1.151,   6.215e-6
1.153,   6.314e-6
1.155,   6.390e-6
1.157,   6.422e-6
1.159,   6.505e-6
1.161,   6.573e-6
1.163,   6.616e-6
1.165,   6.640e-6
1.167,   6.708e-6
1.169,   6.771e-6
1.171,   6.820e-6
1.173,   6.870e-6
1.175,   6.932e-6
1.177,   6.986e-6
1.179,   7.061e-6
1.181,   7.054e-6
1.183,   7.133e-6
1.185,   7.186e-6
1.187,   7.251e-6
1.189,   7.279e-6
1.191,   7.341e-6
1.193,   7.389e-6
1.195,   7.422e-6
1.197,   7.475e-6
1.199,   7.487e-6
1.201,   7.573e-6
1.203,   7.610e-6
1.205,   7.618e-6
1.207,   7.665e-6
1.209,   7.702e-6
1.211,   7.729e-6
1.213,   7.752e-6
1.215,   7.801e-6
1.217,   7.849e-6
1.219,   7.884e-6
1.221,   7.891e-6
1.223,   7.981e-6
1.225,   7.987e-6
1.227,   8.010e-6
1.229,   8.009e-6
1.231,   8.051e-6
1.233,   8.132e-6
1.235,   8.128e-6
1.237,   8.154e-6
1.239,   8.160e-6
1.241,   8.235e-6
1.243,   8.244e-6
1.245,   8.257e-6
1.247,   8.256e-6
1.249,   8.365e-6
1.251,   8.355e-6
1.253,   8.342e-6
1.255,   8.386e-6
1.257,   8.438e-6
1.259,   8.455e-6
1.261,   8.497e-6
1.263,   8.515e-6
1.265,   8.578e-6
1.267,   8.599e-6
1.269,   8.591e-6
1.271,   8.639e-6
1.273,   8.688e-6
1.275,   8.733e-6
1.277,   8.751e-6
1.279,   8.790e-6
1.281,   8.905e-6
1.283,   8.953e-6
1.285,   8.940e-6
1.287,   9.012e-6
1.289,   9.062e-6
1.291,   9.089e-6
1.293,   9.176e-6
1.295,   9.236e-6
1.297,   9.318e-6
1.299,   9.395e-6
1.301,   9.447e-6
1.303,   9.539e-6
1.305,   9.648e-6
1.307,   9.700e-6
1.309,   9.793e-6
1.311,   9.918e-6
1.313,   1.007e-5
1.315,   1.015e-5
1.317,   1.026e-5
1.319,   1.037e-5
1.321,   1.052e-5
1.323,   1.067e-5
1.325,   1.084e-5
1.327,   1.100e-5
1.329,   1.120e-5
1.331,   1.143e-5
1.333,   1.158e-5
1.335,   1.184e-5
1.337,   1.216e-5
1.339,   1.245e-5
1.341,   1.266e-5
1.343,   1.306e-5
1.345,   1.343e-5
1.347,   1.380e-5
1.349,   1.422e-5
1.351,   1.477e-5
1.353,   1.535e-5
1.355,   1.596e-5
1.357,   1.662e-5
1.359,   1.742e-5
1.361,   1.832e-5
1.363,   1.935e-5
1.365,   2.046e-5
1.367,   2.177e-5
1.369,   2.325e-5
1.371,   2.490e-5
1.373,   2.682e-5
1.375,   2.890e-5
1.377,   3.148e-5
1.379,   3.428e-5
1.381,   3.741e-5
1.383,   4.096e-5
1.385,   4.518e-5
1.387,   4.991e-5
1.389,   5.531e-5
1.391,   6.142e-5
1.393,   6.853e-5
1.395,   7.646e-5
1.397,   8.542e-5
1.399,   9.553e-5
1.401,   1.070e-4
1.403,   1.200e-4
1.405,   1.344e-4
1.407,   1.506e-4
1.409,   1.689e-4
1.411,   1.892e-4
1.413,   2.115e-4
1.415,   2.367e-4
1.417,   2.646e-4
1.419,   2.951e-4
1.421,   3.293e-4
1.423,   3.662e-4
1.425,   4.071e-4
1.427,   4.519e-4
1.429,   5.010e-4
1.431,   5.544e-4
1.433,   6.134e-4
1.435,   6.769e-4
1.437,   7.461e-4
1.439,   8.266e-4
1.441,   9.101e-4
1.443,   9.975e-4
1.445,   1.094e-3
1.447,   1.197e-3
1.449,   1.311e-3
1.451,   1.428e-3
1.453,   1.558e-3
1.455,   1.690e-3
1.457,   1.831e-3
1.459,   1.985e-3
1.461,   2.148e-3
1.463,   2.318e-3
1.465,   2.494e-3
1.467,   2.780e-3
1.469,   3.007e-3
1.471,   3.235e-3
1.473,   3.443e-3
1.475,   3.708e-3
1.477,   3.944e-3
1.479,   4.390e-3
1.481,   4.848e-3
1.483,   5.150e-3
1.485,   5.510e-3
1.487,   5.952e-3
1.489,   6.349e-3
1.491,   6.923e-3
1.493,   7.281e-3
1.495,   7.821e-3
1.497,   8.554e-3
1.499,   9.410e-3
1.501,   9.689e-3
1.503,   1.006e-2
1.505,   1.006e-2
1.507,   1.006e-2
1.509,   1.006e-2
1.511,   1.006e-2
1.513,   1.006e-2
1.515,   1.006e-2
1.517,   1.006e-2
1.519,   1.006e-2
1.521,   1.006e-2
1.523,   1.006e-2
1.525,   1.006e-2
1.527,   1.006e-2
1.529,   1.006e-2
1.531,   1.006e-2
1.533,   1.006e-2
1.535,   1.006e-2
1.537,   1.006e-2
1.539,   1.006e-2
1.541,   1.006e-2
1.543,   1.006e-2
1.545,   1.006e-2
1.547,   1.006e-2
1.549,   1.006e-2
1.551,   1.006e-2
1.553,   1.006e-2
1.555,   1.006e-2
1.557,   1.006e-2
1.559,   1.006e-2
1.561,   1.006e-2
1.563,   1.006e-2
1.565,   1.006e-2
1.567,   1.006e-2
1.569,   1.006e-2
1.571,   1.006e-2
1.573,   1.006e-2
1.575,   1.006e-2
1.577,   1.006e-2
1.579,   1.006e-2
1.581,   1.006e-2
1.583,   1.006e-2
1.585,   1.006e-2
1.586,   1.006e-2