File: Experimental Records, Raw Data, and Supplementary Notes and Figures/batch4/final400/B4_BEST_400_#7_Full-233mV.txt
Nov. 30, 2022   14:31:48
Linear Sweep Voltammetry
File: d:\current work\al_oer\electrochemical test data\batch 4\400\B4_BEST_400_#7_Full-233mV.txt
Data Source:  Experiment
Instrument Model:  CHI660E
Header:
Note:

Init E (V) = 1.097

Final E (V) = 1.596

Scan Rate (V/s) = 0.010
Sample Interval (V) = 0.001
Quiet Time (sec) = 2
Sensitivity (A/V) = 0.001
Comp R (ohm) = 7.4

Results:

Channel 1:
Ep = 1.312V
ip = 1.004e-2A
Ah = 5.301e-2C

Potential/V, Current/A
1.097,   2.423e-5
1.099,   2.420e-5
1.101,   2.200e-5
1.103,   2.023e-5
1.105,   1.884e-5
1.107,   1.773e-5
1.109,   1.674e-5
1.111,   1.595e-5
1.113,   1.528e-5
1.115,   1.474e-5
1.117,   1.428e-5
1.119,   1.379e-5
1.121,   1.348e-5
1.123,   1.314e-5
1.125,   1.287e-5
1.127,   1.262e-5
1.129,   1.239e-5
1.131,   1.226e-5
1.133,   1.205e-5
1.135,   1.188e-5
1.137,   1.174e-5
1.139,   1.165e-5
1.141,   1.149e-5
1.143,   1.141e-5
1.145,   1.130e-5
1.147,   1.126e-5
1.149,   1.115e-5
1.151,   1.116e-5
1.153,   1.101e-5
1.155,   1.104e-5
1.157,   1.097e-5
1.159,   1.091e-5
1.161,   1.088e-5
1.163,   1.088e-5
1.165,   1.083e-5
1.167,   1.083e-5
1.169,   1.083e-5
1.171,   1.086e-5
1.173,   1.079e-5
1.175,   1.078e-5
1.177,   1.080e-5
1.179,   1.080e-5
1.181,   1.081e-5
1.183,   1.080e-5
1.185,   1.082e-5
1.187,   1.082e-5
1.189,   1.083e-5
1.191,   1.086e-5
1.193,   1.085e-5
1.195,   1.091e-5
1.197,   1.090e-5
1.199,   1.093e-5
1.201,   1.092e-5
1.203,   1.098e-5
1.205,   1.094e-5
1.207,   1.100e-5
1.209,   1.097e-5
1.211,   1.105e-5
1.213,   1.105e-5
1.215,   1.104e-5
1.217,   1.106e-5
1.219,   1.112e-5
1.221,   1.117e-5
1.223,   1.114e-5
1.225,   1.113e-5
1.227,   1.125e-5
1.229,   1.122e-5
1.231,   1.123e-5
1.233,   1.126e-5
1.235,   1.129e-5
1.237,   1.130e-5
1.239,   1.135e-5
1.241,   1.133e-5
1.243,   1.136e-5
1.245,   1.147e-5
1.247,   1.139e-5
1.249,   1.145e-5
1.251,   1.152e-5
1.253,   1.153e-5
1.255,   1.155e-5
1.257,   1.154e-5
1.259,   1.166e-5
1.261,   1.164e-5
1.263,   1.166e-5
1.265,   1.171e-5
1.267,   1.176e-5
1.269,   1.177e-5
1.271,   1.180e-5
1.273,   1.182e-5
1.275,   1.192e-5
1.277,   1.197e-5
1.279,   1.197e-5
1.281,   1.200e-5
1.283,   1.209e-5
1.285,   1.213e-5
1.287,   1.219e-5
1.289,   1.220e-5
1.291,   1.233e-5
1.293,   1.237e-5
1.295,   1.240e-5
1.297,   1.249e-5
1.299,   1.260e-5
1.301,   1.264e-5
1.303,   1.274e-5
1.305,   1.277e-5
1.307,   1.293e-5
1.309,   1.301e-5
1.311,   1.306e-5
1.313,   1.316e-5
1.315,   1.331e-5
1.317,   1.344e-5
1.319,   1.352e-5
1.321,   1.363e-5
1.323,   1.386e-5
1.325,   1.396e-5
1.327,   1.410e-5
1.329,   1.427e-5
1.331,   1.444e-5
1.333,   1.466e-5
1.335,   1.491e-5
1.337,   1.506e-5
1.339,   1.538e-5
1.341,   1.557e-5
1.343,   1.588e-5
1.345,   1.619e-5
1.347,   1.658e-5
1.349,   1.694e-5
1.351,   1.728e-5
1.353,   1.776e-5
1.355,   1.828e-5
1.357,   1.878e-5
1.359,   1.940e-5
1.361,   2.017e-5
1.363,   2.088e-5
1.365,   2.170e-5
1.367,   2.260e-5
1.369,   2.372e-5
1.371,   2.495e-5
1.373,   2.632e-5
1.375,   2.782e-5
1.377,   2.953e-5
1.379,   3.158e-5
1.381,   3.383e-5
1.383,   3.637e-5
1.385,   3.922e-5
1.387,   4.261e-5
1.389,   4.640e-5
1.391,   5.069e-5
1.393,   5.567e-5
1.395,   6.128e-5
1.397,   6.768e-5
1.399,   7.502e-5
1.401,   8.328e-5
1.403,   9.273e-5
1.405,   1.032e-4
1.407,   1.151e-4
1.409,   1.285e-4
1.411,   1.436e-4
1.413,   1.606e-4
1.415,   1.793e-4
1.417,   2.001e-4
1.419,   2.236e-4
1.421,   2.494e-4
1.423,   2.780e-4
1.425,   3.094e-4
1.427,   3.443e-4
1.429,   3.823e-4
1.431,   4.244e-4
1.433,   4.703e-4
1.435,   5.202e-4
1.437,   5.751e-4
1.439,   6.341e-4
1.441,   6.991e-4
1.443,   7.683e-4
1.445,   8.438e-4
1.447,   9.251e-4
1.449,   1.012e-3
1.451,   1.106e-3
1.453,   1.206e-3
1.455,   1.340e-3
1.457,   1.450e-3
1.459,   1.573e-3
1.461,   1.701e-3
1.463,   1.835e-3
1.465,   2.026e-3
1.467,   2.187e-3
1.469,   2.343e-3
1.471,   2.561e-3
1.473,   2.724e-3
1.475,   2.932e-3
1.477,   3.206e-3
1.479,   3.432e-3
1.481,   3.722e-3
1.483,   4.047e-3
1.485,   4.182e-3
1.487,   4.705e-3
1.489,   5.052e-3
1.491,   5.363e-3
1.493,   5.715e-3
1.495,   6.379e-3
1.497,   6.667e-3
1.499,   7.517e-3
1.501,   7.834e-3
1.503,   8.616e-3
1.505,   8.967e-3
1.507,   9.994e-3
1.509,   1.006e-2
1.511,   1.006e-2
1.513,   1.006e-2
1.515,   1.006e-2
1.517,   1.006e-2
1.519,   1.006e-2
1.521,   1.006e-2
1.523,   1.006e-2
1.525,   1.006e-2
1.527,   1.006e-2
1.529,   1.006e-2
1.531,   1.006e-2
1.533,   1.006e-2
1.535,   1.006e-2
1.537,   1.006e-2
1.539,   1.006e-2
1.541,   1.006e-2
1.543,   1.006e-2
1.545,   1.006e-2
1.547,   1.006e-2
1.549,   1.006e-2
1.551,   1.006e-2
1.553,   1.006e-2
1.555,   1.006e-2
1.557,   1.006e-2
1.559,   1.006e-2
1.561,   1.006e-2
1.563,   1.006e-2
1.565,   1.006e-2
1.567,   1.006e-2
1.569,   1.006e-2
1.571,   1.006e-2
1.573,   1.006e-2
1.575,   1.006e-2
1.577,   1.006e-2
1.579,   1.006e-2
1.581,   1.006e-2
1.583,   1.006e-2
1.585,   1.006e-2
1.587,   1.006e-2
1.589,   1.006e-2
1.591,   1.006e-2
1.593,   1.006e-2
1.595,   1.006e-2
1.596,   1.006e-2