File: Experimental Records, Raw Data, and Supplementary Notes and Figures/batch4/final400/B4_BEST_400_#4_Full-227mV.txt
Mar. 28, 2023   16:29:28
Linear Sweep Voltammetry
File: d:\current work\al_oer\electrochemical test data\batch 4\400\B4_BEST_400_#4_Full-227mV.txt
Data Source:  Experiment
Instrument Model:  CHI660E
Header:
Note:

Init E (V) = 1.098

Final E (V) = 1.497

Scan Rate (V/s) = 0.010
Sample Interval (V) = 0.001
Quiet Time (sec) = 2
Sensitivity (A/V) = 0.001
Comp R (ohm) = 5.1

Results:

Channel 1:

Potential/V, Current/A
1.098,   6.300e-5
1.100,   6.775e-5
1.102,   6.269e-5
1.104,   5.864e-5
1.106,   5.562e-5
1.108,   5.304e-5
1.110,   5.078e-5
1.112,   4.898e-5
1.114,   4.746e-5
1.116,   4.629e-5
1.118,   4.530e-5
1.120,   4.420e-5
1.122,   4.341e-5
1.124,   4.289e-5
1.126,   4.232e-5
1.128,   4.171e-5
1.130,   4.123e-5
1.132,   4.111e-5
1.134,   4.069e-5
1.136,   4.038e-5
1.138,   4.019e-5
1.140,   4.012e-5
1.142,   3.994e-5
1.144,   4.006e-5
1.146,   3.964e-5
1.148,   3.973e-5
1.150,   3.964e-5
1.152,   3.953e-5
1.154,   3.953e-5
1.156,   3.959e-5
1.158,   3.961e-5
1.160,   3.956e-5
1.162,   3.949e-5
1.164,   3.982e-5
1.166,   3.977e-5
1.168,   3.971e-5
1.170,   3.992e-5
1.172,   4.003e-5
1.174,   4.000e-5
1.176,   4.010e-5
1.178,   4.011e-5
1.180,   4.036e-5
1.182,   4.044e-5
1.184,   4.046e-5
1.186,   4.053e-5
1.188,   4.079e-5
1.190,   4.080e-5
1.192,   4.082e-5
1.194,   4.087e-5
1.196,   4.121e-5
1.198,   4.120e-5
1.200,   4.113e-5
1.202,   4.130e-5
1.204,   4.143e-5
1.206,   4.157e-5
1.208,   4.160e-5
1.210,   4.152e-5
1.212,   4.176e-5
1.214,   4.179e-5
1.216,   4.171e-5
1.218,   4.176e-5
1.220,   4.192e-5
1.222,   4.194e-5
1.224,   4.191e-5
1.226,   4.187e-5
1.228,   4.203e-5
1.230,   4.201e-5
1.232,   4.184e-5
1.234,   4.203e-5
1.236,   4.201e-5
1.238,   4.201e-5
1.240,   4.194e-5
1.242,   4.185e-5
1.244,   4.206e-5
1.246,   4.197e-5
1.248,   4.181e-5
1.250,   4.181e-5
1.252,   4.192e-5
1.254,   4.187e-5
1.256,   4.169e-5
1.258,   4.165e-5
1.260,   4.187e-5
1.262,   4.168e-5
1.264,   4.157e-5
1.266,   4.167e-5
1.268,   4.169e-5
1.270,   4.161e-5
1.272,   4.160e-5
1.274,   4.153e-5
1.276,   4.163e-5
1.278,   4.160e-5
1.280,   4.147e-5
1.282,   4.153e-5
1.284,   4.160e-5
1.286,   4.158e-5
1.288,   4.149e-5
1.290,   4.149e-5
1.292,   4.176e-5
1.294,   4.170e-5
1.296,   4.160e-5
1.298,   4.180e-5
1.300,   4.194e-5
1.302,   4.195e-5
1.304,   4.199e-5
1.306,   4.202e-5
1.308,   4.233e-5
1.310,   4.242e-5
1.312,   4.240e-5
1.314,   4.265e-5
1.316,   4.285e-5
1.318,   4.303e-5
1.320,   4.304e-5
1.322,   4.332e-5
1.324,   4.387e-5
1.326,   4.396e-5
1.328,   4.411e-5
1.330,   4.450e-5
1.332,   4.489e-5
1.334,   4.513e-5
1.336,   4.567e-5
1.338,   4.587e-5
1.340,   4.661e-5
1.342,   4.702e-5
1.344,   4.744e-5
1.346,   4.804e-5
1.348,   4.888e-5
1.350,   4.951e-5
1.352,   5.014e-5
1.354,   5.098e-5
1.356,   5.214e-5
1.358,   5.312e-5
1.360,   5.407e-5
1.362,   5.555e-5
1.364,   5.684e-5
1.366,   5.824e-5
1.368,   5.985e-5
1.370,   6.176e-5
1.372,   6.399e-5
1.374,   6.635e-5
1.376,   6.865e-5
1.378,   7.150e-5
1.380,   7.491e-5
1.382,   7.843e-5
1.384,   8.232e-5
1.386,   8.665e-5
1.388,   9.203e-5
1.390,   9.727e-5
1.392,   1.034e-4
1.394,   1.105e-4
1.396,   1.184e-4
1.398,   1.271e-4
1.400,   1.368e-4
1.402,   1.475e-4
1.404,   1.600e-4
1.406,   1.736e-4
1.408,   1.886e-4
1.410,   2.054e-4
1.412,   2.246e-4
1.414,   2.457e-4
1.416,   2.691e-4
1.418,   2.950e-4
1.420,   3.246e-4
1.422,   3.566e-4
1.424,   3.923e-4
1.426,   4.320e-4
1.428,   4.763e-4
1.430,   5.247e-4
1.432,   5.786e-4
1.434,   6.378e-4
1.436,   7.036e-4
1.438,   7.758e-4
1.440,   8.547e-4
1.442,   9.416e-4
1.444,   1.037e-3
1.446,   1.141e-3
1.448,   1.257e-3
1.450,   1.379e-3
1.452,   1.514e-3
1.454,   1.660e-3
1.456,   1.820e-3
1.458,   1.990e-3
1.460,   2.173e-3
1.462,   2.372e-3
1.464,   2.578e-3
1.466,   2.793e-3
1.468,   3.017e-3
1.470,   3.269e-3
1.472,   3.720e-3
1.474,   3.964e-3
1.476,   4.245e-3
1.478,   4.556e-3
1.480,   4.887e-3
1.482,   5.199e-3
1.484,   5.556e-3
1.486,   6.091e-3
1.488,   6.438e-3
1.490,   6.783e-3
1.492,   7.117e-3
1.494,   7.508e-3
1.496,   7.923e-3
1.497,   8.116e-3