File: Experimental Records, Raw Data, and Supplementary Notes and Figures/batch4/final400/B4_BEST_400_#2_Full-172mV.txt
Mar. 27, 2023   15:04:01
Linear Sweep Voltammetry
File: d:\current work\al_oer\electrochemical test data\batch 4\400\B4_BEST_400_#2_Full-172mV.txt
Data Source:  Experiment
Instrument Model:  CHI660E
Header:
Note:

Init E (V) = 1.078

Final E (V) = 1.437

Scan Rate (V/s) = 0.010
Sample Interval (V) = 0.001
Quiet Time (sec) = 2
Sensitivity (A/V) = 0.001
Comp R (ohm) = 5.1

Results:

Channel 1:

Potential/V, Current/A
1.078,   3.143e-4
1.080,   3.109e-4
1.082,   2.746e-4
1.084,   2.478e-4
1.086,   2.288e-4
1.088,   2.138e-4
1.090,   2.021e-4
1.092,   1.931e-4
1.094,   1.857e-4
1.096,   1.803e-4
1.098,   1.760e-4
1.100,   1.715e-4
1.102,   1.680e-4
1.104,   1.657e-4
1.106,   1.634e-4
1.108,   1.611e-4
1.110,   1.595e-4
1.112,   1.589e-4
1.114,   1.576e-4
1.116,   1.560e-4
1.118,   1.564e-4
1.120,   1.553e-4
1.122,   1.549e-4
1.124,   1.546e-4
1.126,   1.557e-4
1.128,   1.551e-4
1.130,   1.540e-4
1.132,   1.526e-4
1.134,   1.536e-4
1.136,   1.566e-4
1.138,   1.550e-4
1.140,   1.555e-4
1.142,   1.561e-4
1.144,   1.562e-4
1.146,   1.575e-4
1.148,   1.537e-4
1.150,   1.605e-4
1.152,   1.566e-4
1.154,   1.558e-4
1.156,   1.592e-4
1.158,   1.620e-4
1.160,   1.656e-4
1.162,   1.646e-4
1.164,   1.603e-4
1.166,   1.657e-4
1.168,   1.567e-4
1.170,   1.647e-4
1.172,   1.598e-4
1.174,   1.700e-4
1.176,   1.636e-4
1.178,   1.531e-4
1.180,   1.664e-4
1.182,   1.746e-4
1.184,   1.784e-4
1.186,   1.676e-4
1.188,   1.572e-4
1.190,   1.549e-4
1.192,   1.552e-4
1.194,   1.583e-4
1.196,   1.656e-4
1.198,   1.707e-4
1.200,   1.730e-4
1.202,   1.769e-4
1.204,   1.802e-4
1.206,   1.804e-4
1.208,   1.811e-4
1.210,   1.809e-4
1.212,   1.818e-4
1.214,   1.827e-4
1.216,   1.805e-4
1.218,   1.789e-4
1.220,   1.776e-4
1.222,   1.761e-4
1.224,   1.757e-4
1.226,   1.728e-4
1.228,   1.681e-4
1.230,   1.648e-4
1.232,   1.634e-4
1.234,   1.608e-4
1.236,   1.594e-4
1.238,   1.580e-4
1.240,   1.572e-4
1.242,   1.553e-4
1.244,   1.558e-4
1.246,   1.578e-4
1.248,   1.598e-4
1.250,   1.617e-4
1.252,   1.633e-4
1.254,   1.640e-4
1.256,   1.666e-4
1.258,   1.703e-4
1.260,   1.725e-4
1.262,   1.740e-4
1.264,   1.762e-4
1.266,   1.770e-4
1.268,   1.792e-4
1.270,   1.819e-4
1.272,   1.848e-4
1.274,   1.855e-4
1.276,   1.857e-4
1.278,   1.874e-4
1.280,   1.881e-4
1.282,   1.898e-4
1.284,   1.905e-4
1.286,   1.901e-4
1.288,   1.897e-4
1.290,   1.887e-4
1.292,   1.860e-4
1.294,   1.836e-4
1.296,   1.822e-4
1.298,   1.776e-4
1.300,   1.722e-4
1.302,   1.683e-4
1.304,   1.680e-4
1.306,   1.687e-4
1.308,   1.735e-4
1.310,   1.828e-4
1.312,   1.933e-4
1.314,   2.018e-4
1.316,   2.026e-4
1.318,   1.929e-4
1.320,   1.824e-4
1.322,   1.783e-4
1.324,   1.901e-4
1.326,   2.080e-4
1.328,   2.101e-4
1.330,   1.942e-4
1.332,   1.884e-4
1.334,   2.116e-4
1.336,   2.210e-4
1.338,   2.009e-4
1.340,   2.104e-4
1.342,   2.324e-4
1.344,   2.118e-4
1.346,   2.297e-4
1.348,   2.391e-4
1.350,   2.288e-4
1.352,   2.570e-4
1.354,   2.439e-4
1.356,   2.737e-4
1.358,   2.643e-4
1.360,   2.910e-4
1.362,   3.029e-4
1.364,   3.077e-4
1.366,   3.373e-4
1.368,   3.632e-4
1.370,   3.749e-4
1.372,   4.032e-4
1.374,   4.425e-4
1.376,   4.825e-4
1.378,   5.231e-4
1.380,   5.745e-4
1.382,   6.310e-4
1.384,   6.967e-4
1.386,   7.736e-4
1.388,   8.615e-4
1.390,   9.641e-4
1.392,   1.066e-3
1.394,   1.181e-3
1.396,   1.340e-3
1.398,   1.485e-3
1.400,   1.677e-3
1.402,   1.898e-3
1.404,   2.115e-3
1.406,   2.378e-3
1.408,   2.681e-3
1.410,   2.996e-3
1.412,   3.318e-3
1.414,   3.671e-3
1.416,   4.093e-3
1.418,   4.555e-3
1.420,   5.042e-3
1.422,   5.558e-3
1.424,   6.119e-3
1.426,   6.713e-3
1.428,   7.336e-3
1.430,   7.935e-3
1.432,   8.436e-3
1.434,   9.399e-3
1.436,   1.001e-2
1.437,   1.006e-2