File: Experimental Records, Raw Data, and Supplementary Notes and Figures/batch4/final400/B4_BEST_400_#6_High_Quality(#22)-220mV.txt
Mar. 26, 2023   15:45:32
Linear Sweep Voltammetry
File: d:\current work\al_oer\electrochemical test data\batch 4\400\B4_BEST_400_#6_High_Quality(#22)-220mV.txt
Data Source:  Experiment
Instrument Model:  CHI660E
Header:
Note:

Init E (V) = 1.067

Final E (V) = 1.466

Scan Rate (V/s) = 0.010
Sample Interval (V) = 0.001
Quiet Time (sec) = 2
Sensitivity (A/V) = 0.001
Comp R (ohm) = 5.1

Results:

Channel 1:

Potential/V, Current/A
1.067,   4.105e-5
1.069,   4.278e-5
1.071,   3.930e-5
1.073,   3.676e-5
1.075,   3.468e-5
1.077,   3.295e-5
1.079,   3.146e-5
1.081,   3.030e-5
1.083,   2.930e-5
1.085,   2.853e-5
1.087,   2.781e-5
1.089,   2.715e-5
1.091,   2.660e-5
1.093,   2.625e-5
1.095,   2.584e-5
1.097,   2.543e-5
1.099,   2.516e-5
1.101,   2.504e-5
1.103,   2.475e-5
1.105,   2.456e-5
1.107,   2.445e-5
1.109,   2.441e-5
1.111,   2.428e-5
1.113,   2.421e-5
1.115,   2.415e-5
1.117,   2.421e-5
1.119,   2.414e-5
1.121,   2.411e-5
1.123,   2.412e-5
1.125,   2.424e-5
1.127,   2.428e-5
1.129,   2.431e-5
1.131,   2.432e-5
1.133,   2.457e-5
1.135,   2.459e-5
1.137,   2.462e-5
1.139,   2.483e-5
1.141,   2.496e-5
1.143,   2.505e-5
1.145,   2.514e-5
1.147,   2.521e-5
1.149,   2.544e-5
1.151,   2.559e-5
1.153,   2.557e-5
1.155,   2.574e-5
1.157,   2.592e-5
1.159,   2.612e-5
1.161,   2.614e-5
1.163,   2.625e-5
1.165,   2.657e-5
1.167,   2.665e-5
1.169,   2.669e-5
1.171,   2.682e-5
1.173,   2.704e-5
1.175,   2.710e-5
1.177,   2.720e-5
1.179,   2.724e-5
1.181,   2.744e-5
1.183,   2.757e-5
1.185,   2.749e-5
1.187,   2.768e-5
1.189,   2.786e-5
1.191,   2.789e-5
1.193,   2.794e-5
1.195,   2.791e-5
1.197,   2.816e-5
1.199,   2.820e-5
1.201,   2.818e-5
1.203,   2.833e-5
1.205,   2.842e-5
1.207,   2.837e-5
1.209,   2.842e-5
1.211,   2.836e-5
1.213,   2.858e-5
1.215,   2.855e-5
1.217,   2.844e-5
1.219,   2.853e-5
1.221,   2.864e-5
1.223,   2.861e-5
1.225,   2.853e-5
1.227,   2.857e-5
1.229,   2.877e-5
1.231,   2.869e-5
1.233,   2.863e-5
1.235,   2.868e-5
1.237,   2.876e-5
1.239,   2.871e-5
1.241,   2.874e-5
1.243,   2.866e-5
1.245,   2.883e-5
1.247,   2.877e-5
1.249,   2.871e-5
1.251,   2.875e-5
1.253,   2.886e-5
1.255,   2.888e-5
1.257,   2.878e-5
1.259,   2.884e-5
1.261,   2.904e-5
1.263,   2.901e-5
1.265,   2.890e-5
1.267,   2.908e-5
1.269,   2.923e-5
1.271,   2.921e-5
1.273,   2.924e-5
1.275,   2.924e-5
1.277,   2.950e-5
1.279,   2.954e-5
1.281,   2.952e-5
1.283,   2.972e-5
1.285,   2.988e-5
1.287,   2.994e-5
1.289,   3.008e-5
1.291,   3.022e-5
1.293,   3.063e-5
1.295,   3.071e-5
1.297,   3.078e-5
1.299,   3.101e-5
1.301,   3.130e-5
1.303,   3.156e-5
1.305,   3.186e-5
1.307,   3.202e-5
1.309,   3.248e-5
1.311,   3.279e-5
1.313,   3.301e-5
1.315,   3.345e-5
1.317,   3.400e-5
1.319,   3.447e-5
1.321,   3.488e-5
1.323,   3.543e-5
1.325,   3.613e-5
1.327,   3.675e-5
1.329,   3.729e-5
1.331,   3.805e-5
1.333,   3.892e-5
1.335,   3.971e-5
1.337,   4.063e-5
1.339,   4.160e-5
1.341,   4.304e-5
1.343,   4.418e-5
1.345,   4.539e-5
1.347,   4.681e-5
1.349,   4.873e-5
1.351,   5.033e-5
1.353,   5.214e-5
1.355,   5.428e-5
1.357,   5.684e-5
1.359,   5.922e-5
1.361,   6.192e-5
1.363,   6.505e-5
1.365,   6.852e-5
1.367,   7.207e-5
1.369,   7.625e-5
1.371,   8.056e-5
1.373,   8.569e-5
1.375,   9.091e-5
1.377,   9.674e-5
1.379,   1.031e-4
1.381,   1.104e-4
1.383,   1.183e-4
1.385,   1.266e-4
1.387,   1.361e-4
1.389,   1.468e-4
1.391,   1.582e-4
1.393,   1.706e-4
1.395,   1.845e-4
1.397,   2.000e-4
1.399,   2.164e-4
1.401,   2.350e-4
1.403,   2.550e-4
1.405,   2.777e-4
1.407,   3.019e-4
1.409,   3.288e-4
1.411,   3.582e-4
1.413,   3.907e-4
1.415,   4.260e-4
1.417,   4.648e-4
1.419,   5.070e-4
1.421,   5.536e-4
1.423,   6.042e-4
1.425,   6.590e-4
1.427,   7.189e-4
1.429,   7.852e-4
1.431,   8.549e-4
1.433,   9.318e-4
1.435,   1.015e-3
1.437,   1.106e-3
1.439,   1.204e-3
1.441,   1.309e-3
1.443,   1.426e-3
1.445,   1.548e-3
1.447,   1.679e-3
1.449,   1.822e-3
1.451,   1.975e-3
1.453,   2.141e-3
1.455,   2.318e-3
1.457,   2.498e-3
1.459,   2.694e-3
1.461,   2.916e-3
1.463,   3.142e-3
1.465,   3.367e-3
1.466,   3.497e-3