File: Experimental Records, Raw Data, and Supplementary Notes and Figures/batch4/final400/B4_BEST_400_#1_Full-205mV.txt
Mar. 28, 2023   16:08:48
Linear Sweep Voltammetry
File: d:\current work\al_oer\electrochemical test data\batch 4\400\B4_BEST_400_#1_Full-205mV.txt
Data Source:  Experiment
Instrument Model:  CHI660E
Header:
Note:

Init E (V) = 1.084

Final E (V) = 1.483

Scan Rate (V/s) = 0.010
Sample Interval (V) = 0.001
Quiet Time (sec) = 2
Sensitivity (A/V) = 0.001
Comp R (ohm) = 4.8

Results:

Channel 1:

Potential/V, Current/A
1.084,   8.655e-5
1.086,   8.855e-5
1.088,   8.121e-5
1.090,   7.544e-5
1.092,   7.123e-5
1.094,   6.736e-5
1.096,   6.434e-5
1.098,   6.182e-5
1.100,   5.955e-5
1.102,   5.782e-5
1.104,   5.635e-5
1.106,   5.494e-5
1.108,   5.361e-5
1.110,   5.260e-5
1.112,   5.175e-5
1.114,   5.084e-5
1.116,   5.008e-5
1.118,   4.964e-5
1.120,   4.899e-5
1.122,   4.843e-5
1.124,   4.798e-5
1.126,   4.757e-5
1.128,   4.730e-5
1.130,   4.703e-5
1.132,   4.676e-5
1.134,   4.671e-5
1.136,   4.639e-5
1.138,   4.585e-5
1.140,   4.568e-5
1.142,   4.556e-5
1.144,   4.550e-5
1.146,   4.530e-5
1.148,   4.512e-5
1.150,   4.506e-5
1.152,   4.502e-5
1.154,   4.474e-5
1.156,   4.483e-5
1.158,   4.490e-5
1.160,   4.474e-5
1.162,   4.474e-5
1.164,   4.460e-5
1.166,   4.473e-5
1.168,   4.467e-5
1.170,   4.455e-5
1.172,   4.496e-5
1.174,   4.497e-5
1.176,   4.485e-5
1.178,   4.466e-5
1.180,   4.466e-5
1.182,   4.482e-5
1.184,   4.467e-5
1.186,   4.449e-5
1.188,   4.442e-5
1.190,   4.458e-5
1.192,   4.442e-5
1.194,   4.445e-5
1.196,   4.413e-5
1.198,   4.423e-5
1.200,   4.420e-5
1.202,   4.388e-5
1.204,   4.394e-5
1.206,   4.392e-5
1.208,   4.381e-5
1.210,   4.363e-5
1.212,   4.346e-5
1.214,   4.362e-5
1.216,   4.343e-5
1.218,   4.323e-5
1.220,   4.332e-5
1.222,   4.324e-5
1.224,   4.303e-5
1.226,   4.292e-5
1.228,   4.278e-5
1.230,   4.287e-5
1.232,   4.282e-5
1.234,   4.251e-5
1.236,   4.259e-5
1.238,   4.262e-5
1.240,   4.239e-5
1.242,   4.222e-5
1.244,   4.207e-5
1.246,   4.228e-5
1.248,   4.263e-5
1.250,   4.234e-5
1.252,   4.253e-5
1.254,   4.248e-5
1.256,   4.236e-5
1.258,   4.231e-5
1.260,   4.200e-5
1.262,   4.201e-5
1.264,   4.206e-5
1.266,   4.183e-5
1.268,   4.168e-5
1.270,   4.181e-5
1.272,   4.177e-5
1.274,   4.161e-5
1.276,   4.153e-5
1.278,   4.172e-5
1.280,   4.157e-5
1.282,   4.152e-5
1.284,   4.164e-5
1.286,   4.173e-5
1.288,   4.172e-5
1.290,   4.170e-5
1.292,   4.170e-5
1.294,   4.193e-5
1.296,   4.207e-5
1.298,   4.190e-5
1.300,   4.207e-5
1.302,   4.235e-5
1.304,   4.252e-5
1.306,   4.261e-5
1.308,   4.283e-5
1.310,   4.338e-5
1.312,   4.338e-5
1.314,   4.363e-5
1.316,   4.395e-5
1.318,   4.447e-5
1.320,   4.472e-5
1.322,   4.518e-5
1.324,   4.553e-5
1.326,   4.619e-5
1.328,   4.671e-5
1.330,   4.724e-5
1.332,   4.791e-5
1.334,   4.877e-5
1.336,   4.955e-5
1.338,   5.038e-5
1.340,   5.149e-5
1.342,   5.279e-5
1.344,   5.397e-5
1.346,   5.532e-5
1.348,   5.708e-5
1.350,   5.889e-5
1.352,   6.078e-5
1.354,   6.309e-5
1.356,   6.537e-5
1.358,   6.847e-5
1.360,   7.168e-5
1.362,   7.505e-5
1.364,   7.921e-5
1.366,   8.395e-5
1.368,   8.897e-5
1.370,   9.449e-5
1.372,   1.010e-4
1.374,   1.083e-4
1.376,   1.164e-4
1.378,   1.252e-4
1.380,   1.356e-4
1.382,   1.472e-4
1.384,   1.619e-4
1.386,   1.752e-4
1.388,   1.913e-4
1.390,   2.099e-4
1.392,   2.302e-4
1.394,   2.528e-4
1.396,   2.782e-4
1.398,   3.067e-4
1.400,   3.384e-4
1.402,   3.729e-4
1.404,   4.116e-4
1.406,   4.564e-4
1.408,   5.024e-4
1.410,   5.550e-4
1.412,   6.130e-4
1.414,   6.770e-4
1.416,   7.465e-4
1.418,   8.214e-4
1.420,   9.062e-4
1.422,   9.918e-4
1.424,   1.101e-3
1.426,   1.212e-3
1.428,   1.334e-3
1.430,   1.465e-3
1.432,   1.608e-3
1.434,   1.762e-3
1.436,   1.924e-3
1.438,   2.116e-3
1.440,   2.321e-3
1.442,   2.526e-3
1.444,   2.766e-3
1.446,   2.998e-3
1.448,   3.268e-3
1.450,   3.535e-3
1.452,   3.798e-3
1.454,   4.095e-3
1.456,   4.434e-3
1.458,   4.756e-3
1.460,   5.060e-3
1.462,   5.399e-3
1.464,   5.786e-3
1.466,   6.163e-3
1.468,   6.499e-3
1.470,   6.797e-3
1.472,   7.161e-3
1.474,   7.628e-3
1.476,   8.019e-3
1.478,   8.664e-3
1.480,   9.397e-3
1.482,   1.006e-2
1.483,   1.006e-2