File: Experimental Records, Raw Data, and Supplementary Notes and Figures/batch4/final400/B4_VARIANCE_400_#8_High_Quality(#32)-201mV.txt
Mar. 28, 2023   15:42:27
Linear Sweep Voltammetry
File: d:\current work\al_oer\electrochemical test data\batch 4\400\B4_VARIANCE_400_#8_High_Quality(#32)-201mV.txt
Data Source:  Experiment
Instrument Model:  CHI660E
Header:
Note:

Init E (V) = 1.037

Final E (V) = 1.436

Scan Rate (V/s) = 0.010
Sample Interval (V) = 0.001
Quiet Time (sec) = 2
Sensitivity (A/V) = 0.001

Results:

Channel 1:

Potential/V, Current/A
1.037,   1.301e-6
1.039,   8.905e-6
1.041,   9.611e-6
1.043,   1.010e-5
1.045,   1.061e-5
1.047,   1.096e-5
1.049,   1.126e-5
1.051,   1.156e-5
1.053,   1.179e-5
1.055,   1.214e-5
1.057,   1.242e-5
1.059,   1.255e-5
1.061,   1.275e-5
1.063,   1.299e-5
1.065,   1.323e-5
1.067,   1.337e-5
1.069,   1.356e-5
1.071,   1.389e-5
1.073,   1.405e-5
1.075,   1.415e-5
1.077,   1.437e-5
1.079,   1.460e-5
1.081,   1.479e-5
1.083,   1.500e-5
1.085,   1.519e-5
1.087,   1.543e-5
1.089,   1.563e-5
1.091,   1.577e-5
1.093,   1.595e-5
1.095,   1.623e-5
1.097,   1.645e-5
1.099,   1.659e-5
1.101,   1.675e-5
1.103,   1.711e-5
1.105,   1.724e-5
1.107,   1.742e-5
1.109,   1.774e-5
1.111,   1.794e-5
1.113,   1.815e-5
1.115,   1.832e-5
1.117,   1.845e-5
1.119,   1.882e-5
1.121,   1.902e-5
1.123,   1.913e-5
1.125,   1.933e-5
1.127,   1.964e-5
1.129,   1.985e-5
1.131,   2.004e-5
1.133,   2.020e-5
1.135,   2.053e-5
1.137,   2.071e-5
1.139,   2.088e-5
1.141,   2.106e-5
1.143,   2.131e-5
1.145,   2.145e-5
1.147,   2.171e-5
1.149,   2.177e-5
1.151,   2.204e-5
1.153,   2.226e-5
1.155,   2.233e-5
1.157,   2.252e-5
1.159,   2.271e-5
1.161,   2.288e-5
1.163,   2.297e-5
1.165,   2.302e-5
1.167,   2.332e-5
1.169,   2.344e-5
1.171,   2.342e-5
1.173,   2.367e-5
1.175,   2.379e-5
1.177,   2.390e-5
1.179,   2.392e-5
1.181,   2.388e-5
1.183,   2.409e-5
1.185,   2.424e-5
1.187,   2.420e-5
1.189,   2.423e-5
1.191,   2.438e-5
1.193,   2.450e-5
1.195,   2.445e-5
1.197,   2.444e-5
1.199,   2.470e-5
1.201,   2.462e-5
1.203,   2.459e-5
1.205,   2.464e-5
1.207,   2.478e-5
1.209,   2.477e-5
1.211,   2.486e-5
1.213,   2.474e-5
1.215,   2.486e-5
1.217,   2.490e-5
1.219,   2.485e-5
1.221,   2.486e-5
1.223,   2.497e-5
1.225,   2.501e-5
1.227,   2.491e-5
1.229,   2.493e-5
1.231,   2.511e-5
1.233,   2.513e-5
1.235,   2.503e-5
1.237,   2.518e-5
1.239,   2.521e-5
1.241,   2.529e-5
1.243,   2.528e-5
1.245,   2.524e-5
1.247,   2.544e-5
1.249,   2.553e-5
1.251,   2.548e-5
1.253,   2.557e-5
1.255,   2.573e-5
1.257,   2.583e-5
1.259,   2.592e-5
1.261,   2.595e-5
1.263,   2.636e-5
1.265,   2.633e-5
1.267,   2.636e-5
1.269,   2.661e-5
1.271,   2.680e-5
1.273,   2.703e-5
1.275,   2.724e-5
1.277,   2.732e-5
1.279,   2.766e-5
1.281,   2.794e-5
1.283,   2.811e-5
1.285,   2.842e-5
1.287,   2.881e-5
1.289,   2.924e-5
1.291,   2.947e-5
1.293,   2.985e-5
1.295,   3.051e-5
1.297,   3.096e-5
1.299,   3.141e-5
1.301,   3.210e-5
1.303,   3.276e-5
1.305,   3.341e-5
1.307,   3.413e-5
1.309,   3.487e-5
1.311,   3.598e-5
1.313,   3.694e-5
1.315,   3.780e-5
1.317,   3.892e-5
1.319,   4.037e-5
1.321,   4.186e-5
1.323,   4.326e-5
1.325,   4.492e-5
1.327,   4.712e-5
1.329,   4.913e-5
1.331,   5.138e-5
1.333,   5.389e-5
1.335,   5.677e-5
1.337,   5.988e-5
1.339,   6.337e-5
1.341,   6.705e-5
1.343,   7.127e-5
1.345,   7.615e-5
1.347,   8.111e-5
1.349,   8.675e-5
1.351,   9.313e-5
1.353,   1.001e-4
1.355,   1.074e-4
1.357,   1.157e-4
1.359,   1.251e-4
1.361,   1.351e-4
1.363,   1.460e-4
1.365,   1.583e-4
1.367,   1.718e-4
1.369,   1.862e-4
1.371,   2.019e-4
1.373,   2.192e-4
1.375,   2.385e-4
1.377,   2.590e-4
1.379,   2.814e-4
1.381,   3.058e-4
1.383,   3.322e-4
1.385,   3.609e-4
1.387,   3.921e-4
1.389,   4.250e-4
1.391,   4.615e-4
1.393,   4.999e-4
1.395,   5.413e-4
1.397,   5.859e-4
1.399,   6.338e-4
1.401,   6.845e-4
1.403,   7.385e-4
1.405,   7.962e-4
1.407,   8.569e-4
1.409,   9.215e-4
1.411,   9.901e-4
1.413,   1.062e-3
1.415,   1.138e-3
1.417,   1.218e-3
1.419,   1.304e-3
1.421,   1.392e-3
1.423,   1.484e-3
1.425,   1.581e-3
1.427,   1.679e-3
1.429,   1.783e-3
1.431,   1.894e-3
1.433,   2.007e-3
1.435,   2.124e-3
1.436,   2.182e-3