File: Experimental Records, Raw Data, and Supplementary Notes and Figures/batch4/final400/B4_VARIANCE_400_#8_Full(#16)-415mV.txt
Mar. 24, 2023   16:14:21
Linear Sweep Voltammetry
File: d:\current work\al_oer\electrochemical test data\batch 4\400\B4_VARIANCE_400_#8_Full(#16)-415mV.txt
Data Source:  Experiment
Instrument Model:  CHI660E
Header:
Note:

Init E (V) = 1.073

Final E (V) = 1.672

Scan Rate (V/s) = 0.010
Sample Interval (V) = 0.001
Quiet Time (sec) = 2
Sensitivity (A/V) = 0.001
Comp R (ohm) = 5.4

Results:

Channel 1:

Potential/V, Current/A
1.073,   9.129e-6
1.075,   8.533e-6
1.077,   7.819e-6
1.079,   7.227e-6
1.081,   6.728e-6
1.083,   6.327e-6
1.085,   5.983e-6
1.087,   5.702e-6
1.089,   5.445e-6
1.091,   5.235e-6
1.093,   5.052e-6
1.095,   4.897e-6
1.097,   4.734e-6
1.099,   4.621e-6
1.101,   4.493e-6
1.103,   4.359e-6
1.105,   4.293e-6
1.107,   4.229e-6
1.109,   4.091e-6
1.111,   4.027e-6
1.113,   3.949e-6
1.115,   3.866e-6
1.117,   3.855e-6
1.119,   3.796e-6
1.121,   3.712e-6
1.123,   3.687e-6
1.125,   3.640e-6
1.127,   3.608e-6
1.129,   3.580e-6
1.131,   3.543e-6
1.133,   3.506e-6
1.135,   3.484e-6
1.137,   3.453e-6
1.139,   3.444e-6
1.141,   3.415e-6
1.143,   3.374e-6
1.145,   3.375e-6
1.147,   3.377e-6
1.149,   3.339e-6
1.151,   3.314e-6
1.153,   3.301e-6
1.155,   3.312e-6
1.157,   3.300e-6
1.159,   3.311e-6
1.161,   3.252e-6
1.163,   3.266e-6
1.165,   3.269e-6
1.167,   3.250e-6
1.169,   3.245e-6
1.171,   3.255e-6
1.173,   3.223e-6
1.175,   3.253e-6
1.177,   3.212e-6
1.179,   3.198e-6
1.181,   3.199e-6
1.183,   3.222e-6
1.185,   3.200e-6
1.187,   3.216e-6
1.189,   3.183e-6
1.191,   3.182e-6
1.193,   3.160e-6
1.195,   3.219e-6
1.197,   3.184e-6
1.199,   3.194e-6
1.201,   3.178e-6
1.203,   3.185e-6
1.205,   3.201e-6
1.207,   3.161e-6
1.209,   3.219e-6
1.211,   3.171e-6
1.213,   3.191e-6
1.215,   3.177e-6
1.217,   3.160e-6
1.219,   3.159e-6
1.221,   3.193e-6
1.223,   3.162e-6
1.225,   3.206e-6
1.227,   3.160e-6
1.229,   3.160e-6
1.231,   3.165e-6
1.233,   3.176e-6
1.235,   3.177e-6
1.237,   3.170e-6
1.239,   3.154e-6
1.241,   3.173e-6
1.243,   3.162e-6
1.245,   3.192e-6
1.247,   3.175e-6
1.249,   3.161e-6
1.251,   3.177e-6
1.253,   3.185e-6
1.255,   3.182e-6
1.257,   3.197e-6
1.259,   3.184e-6
1.261,   3.188e-6
1.263,   3.210e-6
1.265,   3.208e-6
1.267,   3.204e-6
1.269,   3.206e-6
1.271,   3.208e-6
1.273,   3.244e-6
1.275,   3.274e-6
1.277,   3.254e-6
1.279,   3.287e-6
1.281,   3.251e-6
1.283,   3.293e-6
1.285,   3.274e-6
1.287,   3.311e-6
1.289,   3.298e-6
1.291,   3.322e-6
1.293,   3.310e-6
1.295,   3.347e-6
1.297,   3.352e-6
1.299,   3.364e-6
1.301,   3.400e-6
1.303,   3.409e-6
1.305,   3.409e-6
1.307,   3.443e-6
1.309,   3.459e-6
1.311,   3.474e-6
1.313,   3.488e-6
1.315,   3.512e-6
1.317,   3.529e-6
1.319,   3.561e-6
1.321,   3.605e-6
1.323,   3.607e-6
1.325,   3.633e-6
1.327,   3.671e-6
1.329,   3.657e-6
1.331,   3.692e-6
1.333,   3.704e-6
1.335,   3.790e-6
1.337,   3.821e-6
1.339,   3.830e-6
1.341,   3.848e-6
1.343,   3.878e-6
1.345,   3.895e-6
1.347,   3.951e-6
1.349,   3.990e-6
1.351,   4.037e-6
1.353,   4.062e-6
1.355,   4.106e-6
1.357,   4.161e-6
1.359,   4.184e-6
1.361,   4.293e-6
1.363,   4.316e-6
1.365,   4.375e-6
1.367,   4.469e-6
1.369,   4.525e-6
1.371,   4.614e-6
1.373,   4.676e-6
1.375,   4.785e-6
1.377,   4.899e-6
1.379,   5.011e-6
1.381,   5.169e-6
1.383,   5.268e-6
1.385,   5.456e-6
1.387,   5.630e-6
1.389,   5.812e-6
1.391,   6.039e-6
1.393,   6.314e-6
1.395,   6.561e-6
1.397,   6.870e-6
1.399,   7.223e-6
1.401,   7.590e-6
1.403,   8.015e-6
1.405,   8.424e-6
1.407,   8.982e-6
1.409,   9.571e-6
1.411,   1.020e-5
1.413,   1.092e-5
1.415,   1.175e-5
1.417,   1.264e-5
1.419,   1.364e-5
1.421,   1.477e-5
1.423,   1.601e-5
1.425,   1.734e-5
1.427,   1.888e-5
1.429,   2.061e-5
1.431,   2.245e-5
1.433,   2.457e-5
1.435,   2.687e-5
1.437,   2.932e-5
1.439,   3.211e-5
1.441,   3.518e-5
1.443,   3.837e-5
1.445,   4.206e-5
1.447,   4.614e-5
1.449,   5.058e-5
1.451,   5.541e-5
1.453,   6.059e-5
1.455,   6.623e-5
1.457,   7.231e-5
1.459,   7.901e-5
1.461,   8.610e-5
1.463,   9.369e-5
1.465,   1.018e-4
1.467,   1.105e-4
1.469,   1.196e-4
1.471,   1.295e-4
1.473,   1.399e-4
1.475,   1.508e-4
1.477,   1.629e-4
1.479,   1.751e-4
1.481,   1.879e-4
1.483,   2.009e-4
1.485,   2.147e-4
1.487,   2.288e-4
1.489,   2.434e-4
1.491,   2.585e-4
1.493,   2.738e-4
1.495,   2.895e-4
1.497,   3.056e-4
1.499,   3.221e-4
1.501,   3.386e-4
1.503,   3.556e-4
1.505,   3.727e-4
1.507,   3.902e-4
1.509,   4.078e-4
1.511,   4.254e-4
1.513,   4.432e-4
1.515,   4.611e-4
1.517,   4.797e-4
1.519,   4.981e-4
1.521,   5.166e-4
1.523,   5.360e-4
1.525,   5.554e-4
1.527,   5.748e-4
1.529,   5.952e-4
1.531,   6.161e-4
1.533,   6.371e-4
1.535,   6.580e-4
1.537,   6.805e-4
1.539,   7.036e-4
1.541,   7.269e-4
1.543,   7.497e-4
1.545,   7.727e-4
1.547,   7.962e-4
1.549,   8.209e-4
1.551,   8.459e-4
1.553,   8.711e-4
1.555,   8.975e-4
1.557,   9.236e-4
1.559,   9.545e-4
1.561,   9.850e-4
1.563,   1.012e-3
1.565,   1.039e-3
1.567,   1.065e-3
1.569,   1.092e-3
1.571,   1.119e-3
1.573,   1.145e-3
1.575,   1.173e-3
1.577,   1.201e-3
1.579,   1.230e-3
1.581,   1.243e-3
1.583,   1.278e-3
1.585,   1.306e-3
1.587,   1.335e-3
1.589,   1.362e-3
1.591,   1.389e-3
1.593,   1.416e-3
1.595,   1.441e-3
1.597,   1.466e-3
1.599,   1.489e-3
1.601,   1.512e-3
1.603,   1.541e-3
1.605,   1.561e-3
1.607,   1.584e-3
1.609,   1.606e-3
1.611,   1.630e-3
1.613,   1.649e-3
1.615,   1.675e-3
1.617,   1.696e-3
1.619,   1.727e-3
1.621,   1.749e-3
1.623,   1.767e-3
1.625,   1.782e-3
1.627,   1.798e-3
1.629,   1.834e-3
1.631,   1.854e-3
1.633,   1.869e-3
1.635,   1.888e-3
1.637,   1.904e-3
1.639,   1.918e-3
1.641,   1.930e-3
1.643,   1.942e-3
1.645,   1.957e-3
1.647,   1.970e-3
1.649,   1.982e-3
1.651,   1.996e-3
1.653,   2.005e-3
1.655,   2.018e-3
1.657,   2.030e-3
1.659,   2.045e-3
1.661,   2.084e-3
1.663,   2.087e-3
1.665,   2.104e-3
1.667,   2.110e-3
1.669,   2.116e-3
1.671,   2.123e-3
1.672,   2.127e-3