File: Experimental Records, Raw Data, and Supplementary Notes and Figures/batch4/final400/B4_VARIANCE_400_#2_Full(#10)-362mV.txt
Mar. 27, 2023   15:12:38
Linear Sweep Voltammetry
File: d:\current work\al_oer\electrochemical test data\batch 4\400\B4_VARIANCE_400_#2_Full(#10)-362mV.txt
Data Source:  Experiment
Instrument Model:  CHI660E
Header:
Note:

Init E (V) = 1.099

Final E (V) = 1.698

Scan Rate (V/s) = 0.010
Sample Interval (V) = 0.001
Quiet Time (sec) = 2
Sensitivity (A/V) = 0.001
Comp R (ohm) = 5.3

Results:

Channel 1:
Ep = 1.449V
ip = 2.456e-3A
Ah = 4.678e-2C

Potential/V, Current/A
1.099,   1.226e-5
1.101,   1.121e-5
1.103,   1.009e-5
1.105,   9.189e-6
1.107,   8.417e-6
1.109,   7.878e-6
1.111,   7.322e-6
1.113,   6.881e-6
1.115,   6.496e-6
1.117,   6.194e-6
1.119,   5.871e-6
1.121,   5.624e-6
1.123,   5.396e-6
1.125,   5.216e-6
1.127,   5.040e-6
1.129,   4.885e-6
1.131,   4.754e-6
1.133,   4.647e-6
1.135,   4.545e-6
1.137,   4.442e-6
1.139,   4.355e-6
1.141,   4.274e-6
1.143,   4.210e-6
1.145,   4.138e-6
1.147,   4.087e-6
1.149,   4.032e-6
1.151,   3.973e-6
1.153,   3.936e-6
1.155,   3.910e-6
1.157,   3.882e-6
1.159,   3.826e-6
1.161,   3.826e-6
1.163,   3.786e-6
1.165,   3.782e-6
1.167,   3.762e-6
1.169,   3.735e-6
1.171,   3.734e-6
1.173,   3.739e-6
1.175,   3.706e-6
1.177,   3.697e-6
1.179,   3.678e-6
1.181,   3.687e-6
1.183,   3.679e-6
1.185,   3.678e-6
1.187,   3.668e-6
1.189,   3.658e-6
1.191,   3.670e-6
1.193,   3.668e-6
1.195,   3.691e-6
1.197,   3.676e-6
1.199,   3.665e-6
1.201,   3.676e-6
1.203,   3.679e-6
1.205,   3.674e-6
1.207,   3.701e-6
1.209,   3.712e-6
1.211,   3.700e-6
1.213,   3.746e-6
1.215,   3.739e-6
1.217,   3.734e-6
1.219,   3.739e-6
1.221,   3.753e-6
1.223,   3.776e-6
1.225,   3.762e-6
1.227,   3.769e-6
1.229,   3.803e-6
1.231,   3.819e-6
1.233,   3.805e-6
1.235,   3.826e-6
1.237,   3.849e-6
1.239,   3.847e-6
1.241,   3.862e-6
1.243,   3.876e-6
1.245,   3.918e-6
1.247,   3.918e-6
1.249,   3.907e-6
1.251,   3.940e-6
1.253,   3.949e-6
1.255,   3.966e-6
1.257,   3.980e-6
1.259,   3.978e-6
1.261,   4.026e-6
1.263,   4.043e-6
1.265,   4.066e-6
1.267,   4.085e-6
1.269,   4.088e-6
1.271,   4.094e-6
1.273,   4.133e-6
1.275,   4.150e-6
1.277,   4.187e-6
1.279,   4.205e-6
1.281,   4.216e-6
1.283,   4.234e-6
1.285,   4.276e-6
1.287,   4.320e-6
1.289,   4.315e-6
1.291,   4.350e-6
1.293,   4.385e-6
1.295,   4.416e-6
1.297,   4.425e-6
1.299,   4.470e-6
1.301,   4.496e-6
1.303,   4.517e-6
1.305,   4.576e-6
1.307,   4.600e-6
1.309,   4.649e-6
1.311,   4.652e-6
1.313,   4.706e-6
1.315,   4.718e-6
1.317,   4.778e-6
1.319,   4.812e-6
1.321,   4.868e-6
1.323,   4.896e-6
1.325,   4.955e-6
1.327,   4.974e-6
1.329,   5.025e-6
1.331,   5.074e-6
1.333,   5.107e-6
1.335,   5.180e-6
1.337,   5.206e-6
1.339,   5.250e-6
1.341,   5.298e-6
1.343,   5.378e-6
1.345,   5.405e-6
1.347,   5.474e-6
1.349,   5.518e-6
1.351,   5.586e-6
1.353,   5.643e-6
1.355,   5.707e-6
1.357,   5.767e-6
1.359,   5.821e-6
1.361,   5.928e-6
1.363,   5.983e-6
1.365,   6.085e-6
1.367,   6.181e-6
1.369,   6.257e-6
1.371,   6.377e-6
1.373,   6.470e-6
1.375,   6.589e-6
1.377,   6.709e-6
1.379,   6.837e-6
1.381,   6.996e-6
1.383,   7.150e-6
1.385,   7.338e-6
1.387,   7.516e-6
1.389,   7.735e-6
1.391,   7.964e-6
1.393,   8.261e-6
1.395,   8.548e-6
1.397,   8.877e-6
1.399,   9.277e-6
1.401,   9.690e-6
1.403,   1.019e-5
1.405,   1.075e-5
1.407,   1.134e-5
1.409,   1.205e-5
1.411,   1.281e-5
1.413,   1.366e-5
1.415,   1.459e-5
1.417,   1.564e-5
1.419,   1.684e-5
1.421,   1.813e-5
1.423,   1.959e-5
1.425,   2.124e-5
1.427,   2.304e-5
1.429,   2.506e-5
1.431,   2.728e-5
1.433,   2.971e-5
1.435,   3.245e-5
1.437,   3.548e-5
1.439,   3.864e-5
1.441,   4.227e-5
1.443,   4.627e-5
1.445,   5.069e-5
1.447,   5.554e-5
1.449,   6.085e-5
1.451,   6.667e-5
1.453,   7.308e-5
1.455,   8.017e-5
1.457,   8.777e-5
1.459,   9.604e-5
1.461,   1.050e-4
1.463,   1.147e-4
1.465,   1.252e-4
1.467,   1.364e-4
1.469,   1.484e-4
1.471,   1.613e-4
1.473,   1.749e-4
1.475,   1.893e-4
1.477,   2.044e-4
1.479,   2.205e-4
1.481,   2.374e-4
1.483,   2.551e-4
1.485,   2.736e-4
1.487,   2.929e-4
1.489,   3.127e-4
1.491,   3.335e-4
1.493,   3.549e-4
1.495,   3.771e-4
1.497,   4.001e-4
1.499,   4.237e-4
1.501,   4.479e-4
1.503,   4.727e-4
1.505,   4.981e-4
1.507,   5.239e-4
1.509,   5.501e-4
1.511,   5.772e-4
1.513,   6.047e-4
1.515,   6.328e-4
1.517,   6.614e-4
1.519,   6.904e-4
1.521,   7.198e-4
1.523,   7.492e-4
1.525,   7.791e-4
1.527,   8.099e-4
1.529,   8.407e-4
1.531,   8.723e-4
1.533,   9.039e-4
1.535,   9.359e-4
1.537,   9.684e-4
1.539,   1.001e-3
1.541,   1.034e-3
1.543,   1.067e-3
1.545,   1.102e-3
1.547,   1.136e-3
1.549,   1.171e-3
1.551,   1.206e-3
1.553,   1.241e-3
1.555,   1.277e-3
1.557,   1.313e-3
1.559,   1.350e-3
1.561,   1.387e-3
1.563,   1.424e-3
1.565,   1.460e-3
1.567,   1.497e-3
1.569,   1.533e-3
1.571,   1.571e-3
1.573,   1.608e-3
1.575,   1.645e-3
1.577,   1.681e-3
1.579,   1.718e-3
1.581,   1.756e-3
1.583,   1.792e-3
1.585,   1.830e-3
1.587,   1.866e-3
1.589,   1.900e-3
1.591,   1.935e-3
1.593,   1.969e-3
1.595,   2.003e-3
1.597,   2.035e-3
1.599,   2.067e-3
1.601,   2.096e-3
1.603,   2.127e-3
1.605,   2.154e-3
1.607,   2.183e-3
1.609,   2.215e-3
1.611,   2.240e-3
1.613,   2.264e-3
1.615,   2.287e-3
1.617,   2.309e-3
1.619,   2.332e-3
1.621,   2.352e-3
1.623,   2.372e-3
1.625,   2.389e-3
1.627,   2.407e-3
1.629,   2.418e-3
1.631,   2.433e-3
1.633,   2.442e-3
1.635,   2.453e-3
1.637,   2.462e-3
1.639,   2.470e-3
1.641,   2.483e-3
1.643,   2.487e-3
1.645,   2.497e-3
1.647,   2.536e-3
1.649,   2.533e-3
1.651,   2.527e-3
1.653,   2.523e-3
1.655,   2.517e-3
1.657,   2.511e-3
1.659,   2.507e-3
1.661,   2.499e-3
1.663,   2.488e-3
1.665,   2.479e-3
1.667,   2.470e-3
1.669,   2.458e-3
1.671,   2.445e-3
1.673,   2.433e-3
1.675,   2.420e-3
1.677,   2.405e-3
1.679,   2.388e-3
1.681,   2.373e-3
1.683,   2.357e-3
1.685,   2.339e-3
1.687,   2.321e-3
1.689,   2.303e-3
1.691,   2.287e-3
1.693,   2.268e-3
1.695,   2.249e-3
1.697,   2.230e-3
1.698,   2.221e-3