File: Experimental Records, Raw Data, and Supplementary Notes and Figures/batch4/final400/B4_VARIANCE_400_#7_Full(#15)-351mV.txt
Mar. 26, 2023   16:59:58
Linear Sweep Voltammetry
File: d:\current work\al_oer\electrochemical test data\batch 4\400\B4_VARIANCE_400_#7_Full(#15)-351mV.txt
Data Source:  Experiment
Instrument Model:  CHI660E
Header:
Note:

Init E (V) = 1.107

Final E (V) = 1.706

Scan Rate (V/s) = 0.010
Sample Interval (V) = 0.001
Quiet Time (sec) = 2
Sensitivity (A/V) = 0.001
Comp R (ohm) = 5.7

Results:

Channel 1:

Potential/V, Current/A
1.107,   -1.204e-6
1.109,   -1.470e-7
1.111,   1.982e-7
1.113,   3.947e-7
1.115,   6.495e-7
1.117,   7.974e-7
1.119,   9.688e-7
1.121,   1.082e-6
1.123,   1.216e-6
1.125,   1.307e-6
1.127,   1.416e-6
1.129,   1.515e-6
1.131,   1.567e-6
1.133,   1.664e-6
1.135,   1.712e-6
1.137,   1.783e-6
1.139,   1.855e-6
1.141,   1.952e-6
1.143,   1.966e-6
1.145,   2.030e-6
1.147,   2.056e-6
1.149,   2.134e-6
1.151,   2.149e-6
1.153,   2.213e-6
1.155,   2.283e-6
1.157,   2.295e-6
1.159,   2.350e-6
1.161,   2.347e-6
1.163,   2.437e-6
1.165,   2.448e-6
1.167,   2.516e-6
1.169,   2.568e-6
1.171,   2.607e-6
1.173,   2.656e-6
1.175,   2.652e-6
1.177,   2.710e-6
1.179,   2.784e-6
1.181,   2.798e-6
1.183,   2.847e-6
1.185,   2.876e-6
1.187,   2.902e-6
1.189,   2.944e-6
1.191,   2.964e-6
1.193,   3.013e-6
1.195,   3.049e-6
1.197,   3.103e-6
1.199,   3.105e-6
1.201,   3.160e-6
1.203,   3.174e-6
1.205,   3.222e-6
1.207,   3.270e-6
1.209,   3.272e-6
1.211,   3.331e-6
1.213,   3.432e-6
1.215,   3.371e-6
1.217,   3.421e-6
1.219,   3.415e-6
1.221,   3.488e-6
1.223,   3.493e-6
1.225,   3.501e-6
1.227,   3.543e-6
1.229,   3.575e-6
1.231,   3.600e-6
1.233,   3.618e-6
1.235,   3.659e-6
1.237,   3.678e-6
1.239,   3.680e-6
1.241,   3.715e-6
1.243,   3.727e-6
1.245,   3.760e-6
1.247,   3.790e-6
1.249,   3.811e-6
1.251,   3.819e-6
1.253,   3.852e-6
1.255,   3.837e-6
1.257,   3.864e-6
1.259,   3.880e-6
1.261,   3.952e-6
1.263,   3.945e-6
1.265,   3.937e-6
1.267,   3.981e-6
1.269,   4.019e-6
1.271,   4.021e-6
1.273,   4.036e-6
1.275,   4.043e-6
1.277,   4.066e-6
1.279,   4.108e-6
1.281,   4.102e-6
1.283,   4.121e-6
1.285,   4.179e-6
1.287,   4.174e-6
1.289,   4.195e-6
1.291,   4.242e-6
1.293,   4.231e-6
1.295,   4.276e-6
1.297,   4.278e-6
1.299,   4.307e-6
1.301,   4.354e-6
1.303,   4.346e-6
1.305,   4.383e-6
1.307,   4.410e-6
1.309,   4.442e-6
1.311,   4.460e-6
1.313,   4.509e-6
1.315,   4.532e-6
1.317,   4.589e-6
1.319,   4.630e-6
1.321,   4.644e-6
1.323,   4.676e-6
1.325,   4.700e-6
1.327,   4.756e-6
1.329,   4.787e-6
1.331,   4.814e-6
1.333,   4.864e-6
1.335,   4.872e-6
1.337,   4.931e-6
1.339,   4.956e-6
1.341,   5.014e-6
1.343,   5.051e-6
1.345,   5.108e-6
1.347,   5.114e-6
1.349,   5.163e-6
1.351,   5.198e-6
1.353,   5.252e-6
1.355,   5.296e-6
1.357,   5.317e-6
1.359,   5.366e-6
1.361,   5.428e-6
1.363,   5.465e-6
1.365,   5.556e-6
1.367,   5.610e-6
1.369,   5.647e-6
1.371,   5.688e-6
1.373,   5.732e-6
1.375,   5.814e-6
1.377,   5.854e-6
1.379,   5.930e-6
1.381,   6.001e-6
1.383,   6.108e-6
1.385,   6.149e-6
1.387,   6.270e-6
1.389,   6.364e-6
1.391,   6.487e-6
1.393,   6.565e-6
1.395,   6.717e-6
1.397,   6.892e-6
1.399,   6.989e-6
1.401,   7.183e-6
1.403,   7.353e-6
1.405,   7.565e-6
1.407,   7.786e-6
1.409,   8.039e-6
1.411,   8.309e-6
1.413,   8.659e-6
1.415,   9.000e-6
1.417,   9.394e-6
1.419,   9.787e-6
1.421,   1.030e-5
1.423,   1.080e-5
1.425,   1.139e-5
1.427,   1.214e-5
1.429,   1.286e-5
1.431,   1.359e-5
1.433,   1.450e-5
1.435,   1.552e-5
1.437,   1.667e-5
1.439,   1.788e-5
1.441,   1.920e-5
1.443,   2.076e-5
1.445,   2.247e-5
1.447,   2.438e-5
1.449,   2.654e-5
1.451,   2.871e-5
1.453,   3.145e-5
1.455,   3.424e-5
1.457,   3.744e-5
1.459,   4.083e-5
1.461,   4.486e-5
1.463,   4.908e-5
1.465,   5.376e-5
1.467,   5.887e-5
1.469,   6.471e-5
1.471,   7.070e-5
1.473,   7.780e-5
1.475,   8.550e-5
1.477,   9.391e-5
1.479,   1.027e-4
1.481,   1.124e-4
1.483,   1.229e-4
1.485,   1.348e-4
1.487,   1.476e-4
1.489,   1.615e-4
1.491,   1.762e-4
1.493,   1.915e-4
1.495,   2.088e-4
1.497,   2.265e-4
1.499,   2.462e-4
1.501,   2.672e-4
1.503,   2.897e-4
1.505,   3.122e-4
1.507,   3.365e-4
1.509,   3.641e-4
1.511,   3.922e-4
1.513,   4.218e-4
1.515,   4.520e-4
1.517,   4.830e-4
1.519,   5.145e-4
1.521,   5.474e-4
1.523,   5.832e-4
1.525,   6.175e-4
1.527,   6.519e-4
1.529,   6.895e-4
1.531,   7.287e-4
1.533,   7.654e-4
1.535,   8.071e-4
1.537,   8.438e-4
1.539,   8.826e-4
1.541,   9.243e-4
1.543,   9.645e-4
1.545,   1.006e-3
1.547,   1.043e-3
1.549,   1.084e-3
1.551,   1.129e-3
1.553,   1.178e-3
1.555,   1.225e-3
1.557,   1.272e-3
1.559,   1.321e-3
1.561,   1.367e-3
1.563,   1.422e-3
1.565,   1.478e-3
1.567,   1.530e-3
1.569,   1.585e-3
1.571,   1.640e-3
1.573,   1.694e-3
1.575,   1.758e-3
1.577,   1.824e-3
1.579,   1.883e-3
1.581,   1.944e-3
1.583,   2.002e-3
1.585,   2.069e-3
1.587,   2.151e-3
1.589,   2.212e-3
1.591,   2.280e-3
1.593,   2.357e-3
1.595,   2.438e-3
1.597,   2.562e-3
1.599,   2.737e-3
1.601,   2.852e-3
1.603,   2.888e-3
1.605,   2.956e-3
1.607,   3.028e-3
1.609,   3.089e-3
1.611,   3.174e-3
1.613,   3.277e-3
1.615,   3.344e-3
1.617,   3.392e-3
1.619,   3.481e-3
1.621,   3.579e-3
1.623,   3.646e-3
1.625,   3.675e-3
1.627,   3.711e-3
1.629,   3.807e-3
1.631,   3.870e-3
1.633,   3.936e-3
1.635,   3.929e-3
1.637,   3.964e-3
1.639,   4.024e-3
1.641,   4.042e-3
1.643,   4.057e-3
1.645,   4.119e-3
1.647,   4.189e-3
1.649,   4.185e-3
1.651,   4.322e-3
1.653,   4.639e-3
1.655,   4.631e-3
1.657,   4.566e-3
1.659,   4.576e-3
1.661,   4.567e-3
1.663,   4.556e-3
1.665,   4.615e-3
1.667,   4.589e-3
1.669,   4.550e-3
1.671,   4.582e-3
1.673,   4.702e-3
1.675,   4.650e-3
1.677,   4.677e-3
1.679,   5.104e-3
1.681,   5.129e-3
1.683,   5.014e-3
1.685,   5.051e-3
1.687,   5.022e-3
1.689,   4.977e-3
1.691,   5.051e-3
1.693,   5.072e-3
1.695,   5.007e-3
1.697,   5.041e-3
1.699,   5.052e-3
1.701,   5.080e-3
1.703,   5.016e-3
1.705,   4.988e-3
1.706,   4.968e-3