File: Experimental Records, Raw Data, and Supplementary Notes and Figures/batch4/final400/B4_VARIANCE_400_#2_High_Quality(#26)-357mV.txt
Mar. 26, 2023   15:21:29
Linear Sweep Voltammetry
File: d:\current work\al_oer\electrochemical test data\batch 4\400\B4_VARIANCE_400_#2_High_Quality(#26)-357mV.txt
Data Source:  Experiment
Instrument Model:  CHI660E
Header:
Note:

Init E (V) = 1.117

Final E (V) = 1.616

Scan Rate (V/s) = 0.010
Sample Interval (V) = 0.001
Quiet Time (sec) = 2
Sensitivity (A/V) = 0.001
Comp R (ohm) = 7.2

Results:

Channel 1:

Potential/V, Current/A
1.117,   -1.270e-6
1.119,   2.422e-7
1.121,   5.764e-7
1.123,   8.186e-7
1.125,   1.007e-6
1.127,   1.226e-6
1.129,   1.342e-6
1.131,   1.440e-6
1.133,   1.552e-6
1.135,   1.659e-6
1.137,   1.724e-6
1.139,   1.813e-6
1.141,   1.879e-6
1.143,   1.971e-6
1.145,   2.004e-6
1.147,   2.067e-6
1.149,   2.125e-6
1.151,   2.197e-6
1.153,   2.218e-6
1.155,   2.256e-6
1.157,   2.330e-6
1.159,   2.357e-6
1.161,   2.415e-6
1.163,   2.446e-6
1.165,   2.468e-6
1.167,   2.523e-6
1.169,   2.570e-6
1.171,   2.552e-6
1.173,   2.638e-6
1.175,   2.661e-6
1.177,   2.712e-6
1.179,   2.775e-6
1.181,   2.797e-6
1.183,   2.850e-6
1.185,   2.884e-6
1.187,   2.885e-6
1.189,   2.959e-6
1.191,   3.021e-6
1.193,   2.997e-6
1.195,   3.080e-6
1.197,   3.108e-6
1.199,   3.145e-6
1.201,   3.174e-6
1.203,   3.206e-6
1.205,   3.250e-6
1.207,   3.285e-6
1.209,   3.280e-6
1.211,   3.330e-6
1.213,   3.340e-6
1.215,   3.406e-6
1.217,   3.435e-6
1.219,   3.466e-6
1.221,   3.497e-6
1.223,   3.515e-6
1.225,   3.546e-6
1.227,   3.541e-6
1.229,   3.587e-6
1.231,   3.608e-6
1.233,   3.663e-6
1.235,   3.654e-6
1.237,   3.674e-6
1.239,   3.702e-6
1.241,   3.744e-6
1.243,   3.743e-6
1.245,   3.766e-6
1.247,   3.824e-6
1.249,   3.811e-6
1.251,   3.811e-6
1.253,   3.841e-6
1.255,   3.885e-6
1.257,   3.868e-6
1.259,   3.874e-6
1.261,   3.907e-6
1.263,   3.930e-6
1.265,   3.926e-6
1.267,   3.927e-6
1.269,   3.910e-6
1.271,   3.936e-6
1.273,   3.965e-6
1.275,   4.001e-6
1.277,   3.966e-6
1.279,   4.018e-6
1.281,   4.017e-6
1.283,   4.028e-6
1.285,   4.064e-6
1.287,   4.072e-6
1.289,   4.055e-6
1.291,   4.076e-6
1.293,   4.058e-6
1.295,   4.109e-6
1.297,   4.130e-6
1.299,   4.107e-6
1.301,   4.159e-6
1.303,   4.183e-6
1.305,   4.177e-6
1.307,   4.190e-6
1.309,   4.191e-6
1.311,   4.244e-6
1.313,   4.253e-6
1.315,   4.274e-6
1.317,   4.294e-6
1.319,   4.310e-6
1.321,   4.356e-6
1.323,   4.341e-6
1.325,   4.340e-6
1.327,   4.431e-6
1.329,   4.455e-6
1.331,   4.473e-6
1.333,   4.481e-6
1.335,   4.539e-6
1.337,   4.529e-6
1.339,   4.604e-6
1.341,   4.587e-6
1.343,   4.686e-6
1.345,   4.673e-6
1.347,   4.697e-6
1.349,   4.781e-6
1.351,   4.835e-6
1.353,   4.842e-6
1.355,   4.860e-6
1.357,   4.952e-6
1.359,   4.981e-6
1.361,   5.018e-6
1.363,   5.058e-6
1.365,   5.103e-6
1.367,   5.195e-6
1.369,   5.221e-6
1.371,   5.291e-6
1.373,   5.308e-6
1.375,   5.400e-6
1.377,   5.449e-6
1.379,   5.482e-6
1.381,   5.592e-6
1.383,   5.674e-6
1.385,   5.766e-6
1.387,   5.821e-6
1.389,   5.858e-6
1.391,   5.976e-6
1.393,   6.032e-6
1.395,   6.170e-6
1.397,   6.256e-6
1.399,   6.397e-6
1.401,   6.516e-6
1.403,   6.593e-6
1.405,   6.741e-6
1.407,   6.895e-6
1.409,   7.073e-6
1.411,   7.198e-6
1.413,   7.376e-6
1.415,   7.619e-6
1.417,   7.775e-6
1.419,   8.016e-6
1.421,   8.226e-6
1.423,   8.537e-6
1.425,   8.841e-6
1.427,   9.149e-6
1.429,   9.520e-6
1.431,   9.972e-6
1.433,   1.032e-5
1.435,   1.079e-5
1.437,   1.130e-5
1.439,   1.186e-5
1.441,   1.248e-5
1.443,   1.314e-5
1.445,   1.382e-5
1.447,   1.467e-5
1.449,   1.556e-5
1.451,   1.646e-5
1.453,   1.749e-5
1.455,   1.868e-5
1.457,   1.989e-5
1.459,   2.124e-5
1.461,   2.276e-5
1.463,   2.441e-5
1.465,   2.619e-5
1.467,   2.810e-5
1.469,   3.024e-5
1.471,   3.263e-5
1.473,   3.512e-5
1.475,   3.778e-5
1.477,   4.069e-5
1.479,   4.393e-5
1.481,   4.743e-5
1.483,   5.132e-5
1.485,   5.540e-5
1.487,   5.983e-5
1.489,   6.471e-5
1.491,   6.992e-5
1.493,   7.560e-5
1.495,   8.177e-5
1.497,   8.830e-5
1.499,   9.531e-5
1.501,   1.029e-4
1.503,   1.111e-4
1.505,   1.198e-4
1.507,   1.293e-4
1.509,   1.392e-4
1.511,   1.500e-4
1.513,   1.615e-4
1.515,   1.736e-4
1.517,   1.866e-4
1.519,   2.003e-4
1.521,   2.149e-4
1.523,   2.305e-4
1.525,   2.469e-4
1.527,   2.643e-4
1.529,   2.827e-4
1.531,   3.021e-4
1.533,   3.228e-4
1.535,   3.448e-4
1.537,   3.679e-4
1.539,   3.926e-4
1.541,   4.187e-4
1.543,   4.466e-4
1.545,   4.765e-4
1.547,   5.082e-4
1.549,   5.424e-4
1.551,   5.789e-4
1.553,   6.178e-4
1.555,   6.593e-4
1.557,   7.037e-4
1.559,   7.513e-4
1.561,   8.025e-4
1.563,   8.567e-4
1.565,   9.158e-4
1.567,   9.789e-4
1.569,   1.049e-3
1.571,   1.122e-3
1.573,   1.200e-3
1.575,   1.283e-3
1.577,   1.371e-3
1.579,   1.466e-3
1.581,   1.567e-3
1.583,   1.674e-3
1.585,   1.796e-3
1.587,   1.925e-3
1.589,   2.052e-3
1.591,   2.187e-3
1.593,   2.328e-3
1.595,   2.492e-3
1.597,   2.642e-3
1.599,   2.802e-3
1.601,   2.966e-3
1.603,   3.180e-3
1.605,   3.341e-3
1.607,   3.522e-3
1.609,   3.743e-3
1.611,   3.914e-3
1.613,   4.092e-3
1.615,   4.348e-3
1.616,   4.438e-3