File: Experimental Records, Raw Data, and Supplementary Notes and Figures/batch4/final400/B4_VARIANCE_400_#1_High_Quality(#25)-377mV.txt
Mar. 27, 2023   14:11:01
Linear Sweep Voltammetry
File: d:\current work\al_oer\electrochemical test data\batch 4\400\B4_VARIANCE_400_#1_High_Quality(#25)-377mV.txt
Data Source:  Experiment
Instrument Model:  CHI660E
Header:
Note:

Init E (V) = 1.109

Final E (V) = 1.681

Scan Rate (V/s) = 0.010
Sample Interval (V) = 0.001
Quiet Time (sec) = 2
Sensitivity (A/V) = 0.001
Comp R (ohm) = 4.9

Results:

Channel 1:
Ep = 1.401V
ip = 3.254e-4A
Ah = 5.868e-3C

Potential/V, Current/A
1.109,   6.149E-05
1.111,   5.271E-05
1.113,   4.565E-05
1.115,   4.031E-05
1.117,   3.619E-05
1.119,   3.270E-05
1.121,   3.014E-05
1.123,   2.794E-05
1.125,   2.618E-05
1.127,   2.473E-05
1.129,   2.342E-05
1.131,   2.234E-05
1.133,   2.138E-05
1.135,   2.059E-05
1.137,   1.983E-05
1.139,   1.927E-05
1.141,   1.867E-05
1.143,   1.814E-05
1.145,   1.789E-05
1.147,   1.739E-05
1.149,   1.705E-05
1.151,   1.676E-05
1.153,   1.646E-05
1.155,   1.626E-05
1.157,   1.597E-05
1.159,   1.582E-05
1.161,   1.558E-05
1.163,   1.540E-05
1.165,   1.527E-05
1.167,   1.520E-05
1.169,   1.505E-05
1.171,   1.499E-05
1.173,   1.478E-05
1.175,   1.469E-05
1.177,   1.470E-05
1.179,   1.455E-05
1.181,   1.452E-05
1.183,   1.452E-05
1.185,   1.442E-05
1.187,   1.438E-05
1.189,   1.439E-05
1.191,   1.435E-05
1.193,   1.430E-05
1.195,   1.431E-05
1.197,   1.430E-05
1.199,   1.428E-05
1.201,   1.419E-05
1.203,   1.417E-05
1.205,   1.417E-05
1.207,   1.415E-05
1.209,   1.426E-05
1.211,   1.415E-05
1.213,   1.422E-05
1.215,   1.424E-05
1.217,   1.421E-05
1.219,   1.421E-05
1.221,   1.422E-05
1.223,   1.430E-05
1.225,   1.431E-05
1.227,   1.423E-05
1.229,   1.428E-05
1.231,   1.426E-05
1.233,   1.440E-05
1.235,   1.437E-05
1.237,   1.428E-05
1.239,   1.442E-05
1.241,   1.438E-05
1.243,   1.450E-05
1.245,   1.450E-05
1.247,   1.452E-05
1.249,   1.467E-05
1.251,   1.464E-05
1.253,   1.458E-05
1.255,   1.480E-05
1.257,   1.476E-05
1.259,   1.491E-05
1.261,   1.491E-05
1.263,   1.497E-05
1.265,   1.501E-05
1.267,   1.499E-05
1.269,   1.508E-05
1.271,   1.523E-05
1.273,   1.527E-05
1.275,   1.544E-05
1.277,   1.542E-05
1.279,   1.549E-05
1.281,   1.560E-05
1.283,   1.561E-05
1.285,   1.568E-05
1.287,   1.579E-05
1.289,   1.589E-05
1.291,   1.597E-05
1.293,   1.607E-05
1.295,   1.607E-05
1.297,   1.629E-05
1.299,   1.636E-05
1.301,   1.639E-05
1.303,   1.657E-05
1.305,   1.664E-05
1.307,   1.660E-05
1.309,   1.676E-05
1.311,   1.697E-05
1.313,   1.707E-05
1.315,   1.713E-05
1.317,   1.723E-05
1.319,   1.735E-05
1.321,   1.746E-05
1.323,   1.759E-05
1.325,   1.777E-05
1.327,   1.785E-05
1.329,   1.796E-05
1.331,   1.818E-05
1.333,   1.818E-05
1.335,   1.841E-05
1.337,   1.848E-05
1.339,   1.874E-05
1.341,   1.891E-05
1.343,   1.895E-05
1.345,   1.919E-05
1.347,   1.930E-05
1.349,   1.954E-05
1.351,   1.965E-05
1.353,   1.988E-05
1.355,   1.997E-05
1.357,   2.015E-05
1.359,   2.036E-05
1.361,   2.053E-05
1.363,   2.082E-05
1.365,   2.093E-05
1.367,   2.125E-05
1.369,   2.147E-05
1.371,   2.181E-05
1.373,   2.198E-05
1.375,   2.226E-05
1.377,   2.251E-05
1.379,   2.278E-05
1.381,   2.316E-05
1.383,   2.355E-05
1.385,   2.384E-05
1.387,   2.434E-05
1.389,   2.474E-05
1.391,   2.529E-05
1.393,   2.577E-05
1.395,   2.640E-05
1.397,   2.703E-05
1.399,   2.773E-05
1.401,   2.847E-05
1.403,   2.941E-05
1.405,   3.030E-05
1.407,   3.136E-05
1.409,   3.266E-05
1.411,   3.393E-05
1.413,   3.561E-05
1.415,   3.738E-05
1.417,   3.923E-05
1.419,   4.149E-05
1.421,   4.391E-05
1.423,   4.647E-05
1.425,   4.945E-05
1.427,   5.266E-05
1.429,   5.642E-05
1.431,   6.055E-05
1.433,   6.479E-05
1.435,   6.956E-05
1.437,   7.504E-05
1.439,   8.087E-05
1.441,   8.711E-05
1.443,   9.412E-05
1.445,   1.016E-04
1.447,   1.096E-04
1.449,   1.186E-04
1.451,   1.283E-04
1.453,   1.385E-04
1.455,   1.495E-04
1.457,   1.614E-04
1.459,   1.740E-04
1.461,   1.877E-04
1.463,   2.023E-04
1.465,   2.175E-04
1.467,   2.332E-04
1.469,   2.504E-04
1.471,   2.686E-04
1.473,   2.878E-04
1.475,   3.078E-04
1.477,   3.292E-04
1.479,   3.510E-04
1.481,   3.743E-04
1.483,   3.986E-04
1.485,   4.235E-04
1.487,   4.498E-04
1.489,   4.767E-04
1.491,   5.048E-04
1.493,   5.333E-04
1.495,   5.624E-04
1.497,   5.925E-04
1.499,   6.238E-04
1.501,   6.561E-04
1.503,   6.891E-04
1.505,   7.227E-04
1.507,   7.569E-04
1.509,   7.904E-04
1.511,   8.246E-04
1.513,   8.594E-04
1.515,   8.941E-04
1.517,   9.306E-04
1.519,   9.671E-04
1.521,   1.002E-03
1.523,   1.038E-03
1.525,   1.074E-03
1.527,   1.109E-03
1.529,   1.144E-03
1.531,   1.179E-03
1.533,   1.215E-03
1.535,   1.249E-03
1.537,   1.283E-03
1.539,   1.317E-03
1.541,   1.350E-03
1.543,   1.383E-03
1.545,   1.415E-03
1.547,   1.445E-03
1.549,   1.476E-03
1.551,   1.507E-03
1.553,   1.536E-03
1.555,   1.563E-03
1.557,   1.588E-03
1.559,   1.616E-03
1.561,   1.642E-03
1.563,   1.667E-03
1.565,   1.690E-03
1.567,   1.715E-03
1.569,   1.737E-03
1.571,   1.759E-03
1.573,   1.779E-03
1.575,   1.797E-03
1.577,   1.815E-03
1.579,   1.831E-03
1.581,   1.851E-03
1.583,   1.867E-03
1.585,   1.879E-03
1.587,   1.891E-03
1.589,   1.902E-03
1.591,   1.914E-03
1.593,   1.923E-03
1.595,   1.933E-03
1.597,   1.940E-03
1.599,   1.947E-03
1.601,   1.951E-03
1.603,   1.955E-03
1.605,   1.958E-03
1.607,   1.962E-03
1.609,   1.963E-03
1.611,   1.961E-03
1.613,   1.961E-03
1.615,   1.958E-03
1.617,   1.960E-03
1.619,   1.954E-03
1.621,   1.950E-03
1.623,   1.940E-03
1.625,   1.934E-03
1.627,   1.925E-03
1.629,   1.920E-03
1.631,   1.912E-03
1.633,   1.904E-03
1.635,   1.892E-03
1.637,   1.881E-03
1.639,   1.868E-03
1.641,   1.855E-03
1.643,   1.842E-03
1.645,   1.829E-03
1.647,   1.815E-03
1.649,   1.798E-03
1.651,   1.783E-03
1.653,   1.771E-03
1.655,   1.757E-03
1.657,   1.740E-03
1.659,   1.724E-03
1.661,   1.706E-03
1.663,   1.686E-03
1.665,   1.671E-03
1.667,   1.655E-03
1.669,   1.637E-03
1.671,   1.619E-03
1.673,   1.600E-03
1.675,   1.584E-03
1.677,   1.569E-03
1.679,   1.550E-03
1.681,   1.533E-03