File: Experimental Records, Raw Data, and Supplementary Notes and Figures/batch4/final400/B4_VARIANCE_400_#6_High_Quality(#30)-382mV.txt
Mar. 24, 2023   13:23:46
Linear Sweep Voltammetry
File: d:\current work\al_oer\electrochemical test data\batch 4\400\B4_VARIANCE_400_#6_High_Quality(#30)-382mV.txt
Data Source:  Experiment
Instrument Model:  CHI660E
Header:
Note:

Init E (V) = 1.201

Final E (V) = 1.700

Scan Rate (V/s) = 0.010
Sample Interval (V) = 0.001
Quiet Time (sec) = 2
Sensitivity (A/V) = 0.001
Comp R (ohm) = 6.2

Results:

Channel 1:

Potential/V, Current/A
1.201,   -2.103e-6
1.203,   9.161e-7
1.205,   1.643e-6
1.207,   2.109e-6
1.209,   2.481e-6
1.211,   2.765e-6
1.213,   2.992e-6
1.215,   3.190e-6
1.217,   3.370e-6
1.219,   3.422e-6
1.221,   3.694e-6
1.223,   3.810e-6
1.225,   3.925e-6
1.227,   4.069e-6
1.229,   4.146e-6
1.231,   4.256e-6
1.233,   4.355e-6
1.235,   4.492e-6
1.237,   4.602e-6
1.239,   4.649e-6
1.241,   4.742e-6
1.243,   4.846e-6
1.245,   4.933e-6
1.247,   4.997e-6
1.249,   5.102e-6
1.251,   5.193e-6
1.253,   5.241e-6
1.255,   5.343e-6
1.257,   5.412e-6
1.259,   5.522e-6
1.261,   5.594e-6
1.263,   5.651e-6
1.265,   5.754e-6
1.267,   5.854e-6
1.269,   5.933e-6
1.271,   5.986e-6
1.273,   6.095e-6
1.275,   6.177e-6
1.277,   6.269e-6
1.279,   6.291e-6
1.281,   6.390e-6
1.283,   6.494e-6
1.285,   6.548e-6
1.287,   6.589e-6
1.289,   6.716e-6
1.291,   6.755e-6
1.293,   6.845e-6
1.295,   6.879e-6
1.297,   6.961e-6
1.299,   7.059e-6
1.301,   7.089e-6
1.303,   7.131e-6
1.305,   7.183e-6
1.307,   7.278e-6
1.309,   7.318e-6
1.311,   7.385e-6
1.313,   7.409e-6
1.315,   7.504e-6
1.317,   7.554e-6
1.319,   7.521e-6
1.321,   7.569e-6
1.323,   7.640e-6
1.325,   7.680e-6
1.327,   7.688e-6
1.329,   7.731e-6
1.331,   7.790e-6
1.333,   7.801e-6
1.335,   7.806e-6
1.337,   7.839e-6
1.339,   7.871e-6
1.341,   7.881e-6
1.343,   7.906e-6
1.345,   7.919e-6
1.347,   7.970e-6
1.349,   7.978e-6
1.351,   7.950e-6
1.353,   7.981e-6
1.355,   8.025e-6
1.357,   8.010e-6
1.359,   8.008e-6
1.361,   7.990e-6
1.363,   8.059e-6
1.365,   8.055e-6
1.367,   8.033e-6
1.369,   8.054e-6
1.371,   8.077e-6
1.373,   8.081e-6
1.375,   8.089e-6
1.377,   8.078e-6
1.379,   8.101e-6
1.381,   8.113e-6
1.383,   8.082e-6
1.385,   8.116e-6
1.387,   8.134e-6
1.389,   8.131e-6
1.391,   8.143e-6
1.393,   8.145e-6
1.395,   8.190e-6
1.397,   8.199e-6
1.399,   8.148e-6
1.401,   8.217e-6
1.403,   8.243e-6
1.405,   8.265e-6
1.407,   8.268e-6
1.409,   8.254e-6
1.411,   8.324e-6
1.413,   8.345e-6
1.415,   8.338e-6
1.417,   8.378e-6
1.419,   8.433e-6
1.421,   8.470e-6
1.423,   8.463e-6
1.425,   8.512e-6
1.427,   8.640e-6
1.429,   8.631e-6
1.431,   8.653e-6
1.433,   8.688e-6
1.435,   8.802e-6
1.437,   8.853e-6
1.439,   8.924e-6
1.441,   8.970e-6
1.443,   9.055e-6
1.445,   9.150e-6
1.447,   9.222e-6
1.449,   9.298e-6
1.451,   9.449e-6
1.453,   9.557e-6
1.455,   9.646e-6
1.457,   9.779e-6
1.459,   9.956e-6
1.461,   1.007e-5
1.463,   1.024e-5
1.465,   1.046e-5
1.467,   1.063e-5
1.469,   1.084e-5
1.471,   1.106e-5
1.473,   1.133e-5
1.475,   1.159e-5
1.477,   1.194e-5
1.479,   1.224e-5
1.481,   1.264e-5
1.483,   1.307e-5
1.485,   1.351e-5
1.487,   1.400e-5
1.489,   1.455e-5
1.491,   1.528e-5
1.493,   1.591e-5
1.495,   1.666e-5
1.497,   1.753e-5
1.499,   1.849e-5
1.501,   1.951e-5
1.503,   2.071e-5
1.505,   2.194e-5
1.507,   2.346e-5
1.509,   2.502e-5
1.511,   2.678e-5
1.513,   2.871e-5
1.515,   3.091e-5
1.517,   3.333e-5
1.519,   3.594e-5
1.521,   3.876e-5
1.523,   4.207e-5
1.525,   4.562e-5
1.527,   4.950e-5
1.529,   5.389e-5
1.531,   5.870e-5
1.533,   6.395e-5
1.535,   6.971e-5
1.537,   7.611e-5
1.539,   8.331e-5
1.541,   9.103e-5
1.543,   9.937e-5
1.545,   1.087e-4
1.547,   1.190e-4
1.549,   1.303e-4
1.551,   1.425e-4
1.553,   1.560e-4
1.555,   1.709e-4
1.557,   1.870e-4
1.559,   2.045e-4
1.561,   2.238e-4
1.563,   2.450e-4
1.565,   2.681e-4
1.567,   2.933e-4
1.569,   3.207e-4
1.571,   3.508e-4
1.573,   3.832e-4
1.575,   4.187e-4
1.577,   4.572e-4
1.579,   4.996e-4
1.581,   5.453e-4
1.583,   5.944e-4
1.585,   6.482e-4
1.587,   7.063e-4
1.589,   7.686e-4
1.591,   8.358e-4
1.593,   9.086e-4
1.595,   9.870e-4
1.597,   1.071e-3
1.599,   1.160e-3
1.601,   1.256e-3
1.603,   1.361e-3
1.605,   1.470e-3
1.607,   1.586e-3
1.609,   1.704e-3
1.611,   1.836e-3
1.613,   1.975e-3
1.615,   2.114e-3
1.617,   2.279e-3
1.619,   2.443e-3
1.621,   2.603e-3
1.623,   2.770e-3
1.625,   2.944e-3
1.627,   3.131e-3
1.629,   3.338e-3
1.631,   3.534e-3
1.633,   3.733e-3
1.635,   3.937e-3
1.637,   4.155e-3
1.639,   4.366e-3
1.641,   4.603e-3
1.643,   4.820e-3
1.645,   5.050e-3
1.647,   5.242e-3
1.649,   5.478e-3
1.651,   5.741e-3
1.653,   5.932e-3
1.655,   6.244e-3
1.657,   6.464e-3
1.659,   6.704e-3
1.661,   6.956e-3
1.663,   7.277e-3
1.665,   7.469e-3
1.667,   7.642e-3
1.669,   8.119e-3
1.671,   8.340e-3
1.673,   8.533e-3
1.675,   8.719e-3
1.677,   9.070e-3
1.679,   9.443e-3
1.681,   9.821e-3
1.683,   9.864e-3
1.685,   1.006e-2
1.687,   1.006e-2
1.689,   1.006e-2
1.691,   1.006e-2
1.693,   1.006e-2
1.695,   1.006e-2
1.697,   1.006e-2
1.699,   1.006e-2
1.700,   1.006e-2