File: Experimental Records, Raw Data, and Supplementary Notes and Figures/batch4/final400/B4_VARIANCE_400_#4_High_Quality(#28)-370mV.txt
Mar. 28, 2023   18:28:39
Linear Sweep Voltammetry
File: d:\current work\al_oer\electrochemical test data\batch 4\400\B4_VARIANCE_400_#4_High_Quality(#28)-370mV.txt
Data Source:  Experiment
Instrument Model:  CHI660E
Header:
Note:

Init E (V) = 1.189

Final E (V) = 1.688

Scan Rate (V/s) = 0.010
Sample Interval (V) = 0.001
Quiet Time (sec) = 2
Sensitivity (A/V) = 0.001
Comp R (ohm) = 10.0

Results:

Channel 1:

Potential/V, Current/A
1.189,   2.519e-6
1.191,   4.602e-6
1.193,   4.840e-6
1.195,   5.042e-6
1.197,   5.075e-6
1.199,   6.029e-6
1.201,   5.589e-6
1.203,   5.530e-6
1.205,   5.614e-6
1.207,   5.578e-6
1.209,   6.282e-6
1.211,   5.727e-6
1.213,   6.162e-6
1.215,   6.001e-6
1.217,   6.354e-6
1.219,   6.154e-6
1.221,   5.942e-6
1.223,   6.432e-6
1.225,   6.726e-6
1.227,   6.682e-6
1.229,   6.572e-6
1.231,   6.929e-6
1.233,   6.313e-6
1.235,   6.925e-6
1.237,   6.939e-6
1.239,   7.028e-6
1.241,   7.300e-6
1.243,   6.938e-6
1.245,   7.264e-6
1.247,   7.202e-6
1.249,   7.879e-6
1.251,   7.568e-6
1.253,   7.709e-6
1.255,   7.356e-6
1.257,   8.159e-6
1.259,   7.628e-6
1.261,   7.942e-6
1.263,   7.724e-6
1.265,   7.537e-6
1.267,   8.429e-6
1.269,   8.143e-6
1.271,   7.676e-6
1.273,   8.718e-6
1.275,   5.383e-6
1.277,   8.538e-6
1.279,   1.805e-5
1.281,   1.070e-5
1.283,   1.057e-5
1.285,   9.667e-6
1.287,   9.624e-6
1.289,   1.106e-5
1.291,   9.627e-6
1.293,   9.733e-6
1.295,   9.482e-6
1.297,   9.532e-6
1.299,   9.618e-6
1.301,   9.510e-6
1.303,   9.780e-6
1.305,   9.603e-6
1.307,   9.070e-6
1.309,   9.313e-6
1.311,   1.013e-5
1.313,   9.740e-6
1.315,   9.303e-6
1.317,   9.197e-6
1.319,   9.087e-6
1.321,   9.144e-6
1.323,   9.782e-6
1.325,   9.949e-6
1.327,   8.599e-6
1.329,   9.994e-6
1.331,   8.493e-6
1.333,   9.928e-6
1.335,   9.472e-6
1.337,   8.522e-6
1.339,   8.456e-6
1.341,   8.651e-6
1.343,   8.617e-6
1.345,   8.585e-6
1.347,   8.932e-6
1.349,   9.677e-6
1.351,   9.470e-6
1.353,   8.757e-6
1.355,   9.586e-6
1.357,   9.042e-6
1.359,   9.534e-6
1.361,   9.141e-6
1.363,   9.626e-6
1.365,   9.144e-6
1.367,   9.245e-6
1.369,   9.548e-6
1.371,   9.537e-6
1.373,   9.480e-6
1.375,   9.491e-6
1.377,   9.666e-6
1.379,   9.607e-6
1.381,   9.567e-6
1.383,   9.611e-6
1.385,   9.935e-6
1.387,   9.771e-6
1.389,   9.881e-6
1.391,   1.000e-5
1.393,   1.042e-5
1.395,   9.996e-6
1.397,   9.758e-6
1.399,   9.915e-6
1.401,   1.010e-5
1.403,   1.068e-5
1.405,   1.085e-5
1.407,   1.060e-5
1.409,   1.092e-5
1.411,   1.117e-5
1.413,   1.124e-5
1.415,   1.135e-5
1.417,   1.183e-5
1.419,   1.145e-5
1.421,   1.218e-5
1.423,   1.260e-5
1.425,   1.252e-5
1.427,   1.229e-5
1.429,   1.307e-5
1.431,   1.316e-5
1.433,   1.327e-5
1.435,   1.354e-5
1.437,   1.378e-5
1.439,   1.465e-5
1.441,   1.440e-5
1.443,   1.492e-5
1.445,   1.533e-5
1.447,   1.787e-5
1.449,   1.679e-5
1.451,   1.655e-5
1.453,   1.759e-5
1.455,   1.788e-5
1.457,   1.888e-5
1.459,   1.969e-5
1.461,   2.051e-5
1.463,   2.067e-5
1.465,   2.239e-5
1.467,   2.339e-5
1.469,   2.423e-5
1.471,   2.565e-5
1.473,   2.711e-5
1.475,   2.900e-5
1.477,   3.003e-5
1.479,   3.211e-5
1.481,   3.410e-5
1.483,   3.697e-5
1.485,   3.942e-5
1.487,   4.181e-5
1.489,   4.459e-5
1.491,   4.870e-5
1.493,   5.188e-5
1.495,   5.586e-5
1.497,   6.040e-5
1.499,   6.517e-5
1.501,   6.926e-5
1.503,   7.529e-5
1.505,   8.122e-5
1.507,   8.759e-5
1.509,   9.449e-5
1.511,   1.025e-4
1.513,   1.104e-4
1.515,   1.203e-4
1.517,   1.281e-4
1.519,   1.399e-4
1.521,   1.498e-4
1.523,   1.623e-4
1.525,   1.754e-4
1.527,   1.896e-4
1.529,   2.051e-4
1.531,   2.203e-4
1.533,   2.389e-4
1.535,   2.556e-4
1.537,   2.758e-4
1.539,   2.945e-4
1.541,   3.165e-4
1.543,   3.426e-4
1.545,   3.666e-4
1.547,   3.930e-4
1.549,   4.216e-4
1.551,   4.510e-4
1.553,   4.834e-4
1.555,   5.171e-4
1.557,   5.522e-4
1.559,   5.915e-4
1.561,   6.289e-4
1.563,   6.702e-4
1.565,   7.137e-4
1.567,   7.582e-4
1.569,   8.050e-4
1.571,   8.584e-4
1.573,   9.083e-4
1.575,   9.630e-4
1.577,   1.025e-3
1.579,   1.084e-3
1.581,   1.148e-3
1.583,   1.213e-3
1.585,   1.290e-3
1.587,   1.363e-3
1.589,   1.434e-3
1.591,   1.509e-3
1.593,   1.594e-3
1.595,   1.676e-3
1.597,   1.763e-3
1.599,   1.843e-3
1.601,   1.952e-3
1.603,   2.040e-3
1.605,   2.151e-3
1.607,   2.249e-3
1.609,   2.376e-3
1.611,   2.485e-3
1.613,   2.579e-3
1.615,   2.694e-3
1.617,   2.863e-3
1.619,   3.033e-3
1.621,   3.221e-3
1.623,   3.379e-3
1.625,   3.585e-3
1.627,   3.870e-3
1.629,   4.130e-3
1.631,   4.752e-3
1.633,   4.900e-3
1.635,   4.992e-3
1.637,   5.121e-3
1.639,   5.292e-3
1.641,   4.891e-3
1.643,   4.931e-3
1.645,   5.277e-3
1.647,   6.619e-3
1.649,   6.106e-3
1.651,   6.537e-3
1.653,   6.711e-3
1.655,   8.669e-3
1.657,   9.591e-3
1.659,   8.302e-3
1.661,   8.436e-3
1.663,   1.006e-2
1.665,   9.466e-3
1.667,   9.042e-3
1.669,   1.006e-2
1.671,   1.006e-2
1.673,   1.006e-2
1.675,   1.006e-2
1.677,   1.006e-2
1.679,   1.006e-2
1.681,   1.006e-2
1.683,   1.006e-2
1.685,   1.006e-2
1.687,   1.006e-2
1.688,   1.006e-2