File: Experimental Records, Raw Data, and Supplementary Notes and Figures/batch5/final400/B5_BEST_400_#1_Full(#15)-223mV.txt
May 30, 2023   19:55:59
Linear Sweep Voltammetry
File: d:\current work\al_oer\electrochemical test data\batch 5\400\B5_BEST_400_#1_Full(#15)-223mV.txt
Data Source:  Experiment
Instrument Model:  CHI660E
Header:
Note:

Init E (V) = 0.900

Final E (V) = 1.511

Scan Rate (V/s) = 0.010
Sample Interval (V) = 0.001
Quiet Time (sec) = 2
Sensitivity (A/V) = 0.001
Comp R (ohm) = 6.5

Results:

Channel 1:
Ep = 1.487V
ip = 4.545e-3A
Ah = 1.546e-2C

Potential/V, Current/A
0.900,   1.432e-4
0.903,   1.388e-4
0.906,   1.301e-4
0.909,   1.219e-4
0.912,   1.143e-4
0.915,   1.083e-4
0.918,   1.026e-4
0.921,   9.778e-5
0.924,   9.362e-5
0.927,   9.021e-5
0.930,   8.701e-5
0.933,   8.424e-5
0.936,   8.169e-5
0.939,   7.913e-5
0.942,   7.688e-5
0.945,   7.501e-5
0.948,   7.278e-5
0.951,   7.180e-5
0.954,   7.007e-5
0.957,   6.880e-5
0.960,   6.797e-5
0.963,   6.676e-5
0.966,   6.535e-5
0.969,   6.459e-5
0.972,   6.324e-5
0.975,   6.257e-5
0.978,   6.175e-5
0.981,   6.052e-5
0.984,   5.983e-5
0.987,   5.946e-5
0.990,   5.898e-5
0.993,   5.850e-5
0.996,   5.781e-5
0.999,   5.753e-5
1.002,   5.731e-5
1.005,   5.656e-5
1.008,   5.609e-5
1.011,   5.575e-5
1.014,   5.545e-5
1.017,   5.525e-5
1.020,   5.523e-5
1.023,   5.490e-5
1.026,   5.436e-5
1.029,   5.418e-5
1.032,   5.407e-5
1.035,   5.377e-5
1.038,   5.364e-5
1.041,   5.340e-5
1.044,   5.340e-5
1.047,   5.360e-5
1.050,   5.382e-5
1.053,   5.307e-5
1.056,   5.323e-5
1.059,   5.305e-5
1.062,   5.288e-5
1.065,   5.315e-5
1.068,   5.289e-5
1.071,   5.303e-5
1.074,   5.327e-5
1.077,   5.322e-5
1.080,   5.295e-5
1.083,   5.322e-5
1.086,   5.310e-5
1.089,   5.327e-5
1.092,   5.348e-5
1.095,   5.366e-5
1.098,   5.398e-5
1.101,   5.411e-5
1.104,   5.421e-5
1.107,   5.426e-5
1.110,   5.470e-5
1.113,   5.508e-5
1.116,   5.519e-5
1.119,   5.524e-5
1.122,   5.555e-5
1.125,   5.588e-5
1.128,   5.583e-5
1.131,   5.695e-5
1.134,   5.712e-5
1.137,   5.683e-5
1.140,   5.714e-5
1.143,   5.786e-5
1.146,   5.795e-5
1.149,   5.827e-5
1.152,   5.914e-5
1.155,   5.909e-5
1.158,   5.936e-5
1.161,   5.984e-5
1.164,   6.052e-5
1.167,   6.065e-5
1.170,   6.113e-5
1.173,   6.138e-5
1.176,   6.191e-5
1.179,   6.232e-5
1.182,   6.267e-5
1.185,   6.320e-5
1.188,   6.404e-5
1.191,   6.455e-5
1.194,   6.491e-5
1.197,   6.493e-5
1.200,   6.572e-5
1.203,   6.660e-5
1.206,   6.692e-5
1.209,   6.784e-5
1.212,   6.875e-5
1.215,   6.893e-5
1.218,   7.006e-5
1.221,   7.041e-5
1.224,   7.111e-5
1.227,   7.173e-5
1.230,   7.271e-5
1.233,   7.401e-5
1.236,   7.490e-5
1.239,   7.484e-5
1.242,   7.621e-5
1.245,   7.814e-5
1.248,   7.799e-5
1.251,   7.882e-5
1.254,   7.986e-5
1.257,   8.115e-5
1.260,   8.180e-5
1.263,   8.293e-5
1.266,   8.387e-5
1.269,   8.564e-5
1.272,   8.643e-5
1.275,   8.768e-5
1.278,   8.922e-5
1.281,   9.048e-5
1.284,   9.105e-5
1.287,   9.266e-5
1.290,   9.470e-5
1.293,   9.545e-5
1.296,   9.730e-5
1.299,   9.845e-5
1.302,   1.002e-4
1.305,   1.016e-4
1.308,   1.030e-4
1.311,   1.052e-4
1.314,   1.067e-4
1.317,   1.080e-4
1.320,   1.104e-4
1.323,   1.127e-4
1.326,   1.146e-4
1.329,   1.171e-4
1.332,   1.194e-4
1.335,   1.216e-4
1.338,   1.245e-4
1.341,   1.263e-4
1.344,   1.293e-4
1.347,   1.316e-4
1.350,   1.357e-4
1.353,   1.378e-4
1.356,   1.417e-4
1.359,   1.456e-4
1.362,   1.489e-4
1.365,   1.531e-4
1.368,   1.569e-4
1.371,   1.608e-4
1.374,   1.666e-4
1.377,   1.728e-4
1.380,   1.792e-4
1.383,   1.867e-4
1.386,   1.937e-4
1.389,   2.029e-4
1.392,   2.120e-4
1.395,   2.232e-4
1.398,   2.347e-4
1.401,   2.488e-4
1.404,   2.652e-4
1.407,   2.839e-4
1.410,   3.074e-4
1.413,   3.341e-4
1.416,   3.670e-4
1.419,   4.062e-4
1.422,   4.537e-4
1.425,   5.077e-4
1.428,   5.743e-4
1.431,   6.545e-4
1.434,   7.478e-4
1.437,   8.630e-4
1.440,   9.987e-4
1.443,   1.162e-3
1.446,   1.348e-3
1.449,   1.571e-3
1.452,   1.814e-3
1.455,   2.090e-3
1.458,   2.406e-3
1.461,   2.743e-3
1.464,   3.092e-3
1.467,   3.442e-3
1.470,   3.773e-3
1.473,   4.066e-3
1.476,   4.322e-3
1.479,   4.522e-3
1.482,   4.604e-3
1.485,   4.671e-3
1.488,   4.670e-3
1.491,   4.629e-3
1.494,   4.512e-3
1.497,   4.424e-3
1.500,   4.297e-3
1.503,   4.189e-3
1.506,   4.112e-3
1.509,   4.029e-3
1.511,   3.980e-3