File: Experimental Records, Raw Data, and Supplementary Notes and Figures/batch5/final400/B5_BEST_400_#1_Full(#6)-198mV.txt
May 30, 2023   21:53:43
Linear Sweep Voltammetry
File: d:\current work\al_oer\electrochemical test data\batch 5\400\B5_BEST_400_#1_Full(#6)-198mV.txt
Data Source:  Experiment
Instrument Model:  CHI660E
Header:
Note:

Init E (V) = 0.900

Final E (V) = 1.475

Scan Rate (V/s) = 0.010
Sample Interval (V) = 0.001
Quiet Time (sec) = 2
Sensitivity (A/V) = 0.001
Comp R (ohm) = 4.4

Results:

Channel 1:

Potential/V, Current/A
0.900,   4.084e-4
0.902,   4.267e-4
0.904,   4.005e-4
0.906,   3.787e-4
0.908,   3.584e-4
0.910,   3.441e-4
0.912,   3.297e-4
0.914,   3.184e-4
0.916,   3.046e-4
0.918,   2.998e-4
0.920,   2.877e-4
0.922,   2.789e-4
0.924,   2.767e-4
0.926,   2.680e-4
0.928,   2.621e-4
0.930,   2.586e-4
0.932,   2.539e-4
0.934,   2.501e-4
0.936,   2.469e-4
0.938,   2.455e-4
0.940,   2.396e-4
0.942,   2.358e-4
0.944,   2.349e-4
0.946,   2.316e-4
0.948,   2.321e-4
0.950,   2.279e-4
0.952,   2.260e-4
0.954,   2.220e-4
0.956,   2.221e-4
0.958,   2.183e-4
0.960,   2.187e-4
0.962,   2.191e-4
0.964,   2.161e-4
0.966,   2.125e-4
0.968,   2.153e-4
0.970,   2.129e-4
0.972,   2.109e-4
0.974,   2.121e-4
0.976,   2.089e-4
0.978,   2.086e-4
0.980,   2.096e-4
0.982,   2.062e-4
0.984,   2.053e-4
0.986,   2.076e-4
0.988,   2.051e-4
0.990,   2.055e-4
0.992,   2.066e-4
0.994,   2.029e-4
0.996,   2.039e-4
0.998,   2.030e-4
1.000,   2.040e-4
1.002,   2.022e-4
1.004,   2.004e-4
1.006,   2.025e-4
1.008,   2.003e-4
1.010,   2.028e-4
1.012,   2.020e-4
1.014,   1.999e-4
1.016,   2.000e-4
1.018,   2.006e-4
1.020,   1.987e-4
1.022,   1.999e-4
1.024,   1.999e-4
1.026,   2.001e-4
1.028,   1.989e-4
1.030,   2.003e-4
1.032,   1.997e-4
1.034,   1.995e-4
1.036,   1.992e-4
1.038,   1.995e-4
1.040,   1.998e-4
1.042,   1.988e-4
1.044,   2.028e-4
1.046,   1.991e-4
1.048,   2.019e-4
1.050,   2.019e-4
1.052,   1.975e-4
1.054,   2.004e-4
1.056,   2.014e-4
1.058,   1.992e-4
1.060,   1.991e-4
1.062,   2.020e-4
1.064,   2.003e-4
1.066,   2.004e-4
1.068,   2.025e-4
1.070,   2.030e-4
1.072,   2.012e-4
1.074,   2.056e-4
1.076,   2.032e-4
1.078,   2.036e-4
1.080,   2.043e-4
1.082,   2.039e-4
1.084,   2.043e-4
1.086,   2.041e-4
1.088,   2.070e-4
1.090,   2.057e-4
1.092,   2.064e-4
1.094,   2.104e-4
1.096,   2.059e-4
1.098,   2.062e-4
1.100,   2.096e-4
1.102,   2.091e-4
1.104,   2.091e-4
1.106,   2.105e-4
1.108,   2.100e-4
1.110,   2.098e-4
1.112,   2.112e-4
1.114,   2.135e-4
1.116,   2.137e-4
1.118,   2.163e-4
1.120,   2.164e-4
1.122,   2.156e-4
1.124,   2.156e-4
1.126,   2.171e-4
1.128,   2.175e-4
1.130,   2.184e-4
1.132,   2.188e-4
1.134,   2.197e-4
1.136,   2.231e-4
1.138,   2.212e-4
1.140,   2.207e-4
1.142,   2.233e-4
1.144,   2.259e-4
1.146,   2.239e-4
1.148,   2.239e-4
1.150,   2.266e-4
1.152,   2.263e-4
1.154,   2.276e-4
1.156,   2.295e-4
1.158,   2.278e-4
1.160,   2.301e-4
1.162,   2.321e-4
1.164,   2.326e-4
1.166,   2.330e-4
1.168,   2.351e-4
1.170,   2.348e-4
1.172,   2.354e-4
1.174,   2.374e-4
1.176,   2.386e-4
1.178,   2.396e-4
1.180,   2.397e-4
1.182,   2.410e-4
1.184,   2.402e-4
1.186,   2.438e-4
1.188,   2.464e-4
1.190,   2.433e-4
1.192,   2.455e-4
1.194,   2.521e-4
1.196,   2.492e-4
1.198,   2.491e-4
1.200,   2.523e-4
1.202,   2.520e-4
1.204,   2.546e-4
1.206,   2.564e-4
1.208,   2.546e-4
1.210,   2.567e-4
1.212,   2.587e-4
1.214,   2.590e-4
1.216,   2.609e-4
1.218,   2.634e-4
1.220,   2.642e-4
1.222,   2.624e-4
1.224,   2.664e-4
1.226,   2.676e-4
1.228,   2.659e-4
1.230,   2.680e-4
1.232,   2.714e-4
1.234,   2.712e-4
1.236,   2.740e-4
1.238,   2.776e-4
1.240,   2.713e-4
1.242,   2.781e-4
1.244,   2.821e-4
1.246,   2.765e-4
1.248,   2.811e-4
1.250,   2.840e-4
1.252,   2.831e-4
1.254,   2.823e-4
1.256,   2.880e-4
1.258,   2.874e-4
1.260,   2.876e-4
1.262,   2.936e-4
1.264,   2.956e-4
1.266,   2.898e-4
1.268,   2.957e-4
1.270,   2.970e-4
1.272,   2.945e-4
1.274,   3.015e-4
1.276,   3.009e-4
1.278,   3.027e-4
1.280,   3.044e-4
1.282,   3.079e-4
1.284,   3.041e-4
1.286,   3.076e-4
1.288,   3.133e-4
1.290,   3.087e-4
1.292,   3.142e-4
1.294,   3.164e-4
1.296,   3.139e-4
1.298,   3.180e-4
1.300,   3.203e-4
1.302,   3.203e-4
1.304,   3.222e-4
1.306,   3.283e-4
1.308,   3.273e-4
1.310,   3.289e-4
1.312,   3.321e-4
1.314,   3.340e-4
1.316,   3.336e-4
1.318,   3.380e-4
1.320,   3.413e-4
1.322,   3.455e-4
1.324,   3.451e-4
1.326,   3.494e-4
1.328,   3.519e-4
1.330,   3.514e-4
1.332,   3.613e-4
1.334,   3.591e-4
1.336,   3.602e-4
1.338,   3.675e-4
1.340,   3.684e-4
1.342,   3.724e-4
1.344,   3.797e-4
1.346,   3.840e-4
1.348,   3.846e-4
1.350,   3.923e-4
1.352,   3.915e-4
1.354,   3.985e-4
1.356,   4.065e-4
1.358,   4.055e-4
1.360,   4.104e-4
1.362,   4.242e-4
1.364,   4.250e-4
1.366,   4.340e-4
1.368,   4.396e-4
1.370,   4.491e-4
1.372,   4.528e-4
1.374,   4.618e-4
1.376,   4.770e-4
1.378,   4.789e-4
1.380,   4.969e-4
1.382,   5.096e-4
1.384,   5.211e-4
1.386,   5.309e-4
1.388,   5.545e-4
1.390,   5.720e-4
1.392,   5.861e-4
1.394,   6.148e-4
1.396,   6.388e-4
1.398,   6.618e-4
1.400,   6.989e-4
1.402,   7.308e-4
1.404,   7.710e-4
1.406,   8.177e-4
1.408,   8.693e-4
1.410,   9.144e-4
1.412,   9.848e-4
1.414,   1.060e-3
1.416,   1.134e-3
1.418,   1.228e-3
1.420,   1.338e-3
1.422,   1.446e-3
1.424,   1.577e-3
1.426,   1.728e-3
1.428,   1.879e-3
1.430,   2.064e-3
1.432,   2.265e-3
1.434,   2.478e-3
1.436,   2.712e-3
1.438,   2.983e-3
1.440,   3.278e-3
1.442,   3.552e-3
1.444,   3.880e-3
1.446,   4.255e-3
1.448,   4.602e-3
1.450,   5.054e-3
1.452,   5.479e-3
1.454,   5.879e-3
1.456,   6.340e-3
1.458,   6.883e-3
1.460,   7.424e-3
1.462,   7.981e-3
1.464,   8.601e-3
1.466,   9.144e-3
1.468,   9.521e-3
1.470,   9.912e-3
1.472,   1.005e-2
1.474,   1.007e-2
1.475,   1.007e-2