File: Experimental Records, Raw Data, and Supplementary Notes and Figures/batch5/final400/B5_BEST_400_#1_High_Quality(#20)-214mV.txt
May 30, 2023   20:07:09
Linear Sweep Voltammetry
File: d:\current work\al_oer\electrochemical test data\batch 5\400\B5_BEST_400_#1_High_Quality(#20)-214mV.txt
Data Source:  Experiment
Instrument Model:  CHI660E
Header:
Note:

Init E (V) = 0.900

Final E (V) = 1.531

Scan Rate (V/s) = 0.010
Sample Interval (V) = 0.001
Quiet Time (sec) = 2
Sensitivity (A/V) = 0.001
Comp R (ohm) = 6.8

Results:

Channel 1:

Potential/V, Current/A
0.900,   1.253e-3
0.903,   1.113e-3
0.906,   9.735e-4
0.909,   8.622e-4
0.912,   7.726e-4
0.915,   7.014e-4
0.918,   6.431e-4
0.921,   5.958e-4
0.924,   5.567e-4
0.927,   5.232e-4
0.930,   4.968e-4
0.933,   4.731e-4
0.936,   4.536e-4
0.939,   4.383e-4
0.942,   4.236e-4
0.945,   4.101e-4
0.948,   3.981e-4
0.951,   3.878e-4
0.954,   3.790e-4
0.957,   3.722e-4
0.960,   3.638e-4
0.963,   3.593e-4
0.966,   3.544e-4
0.969,   3.496e-4
0.972,   3.437e-4
0.975,   3.401e-4
0.978,   3.365e-4
0.981,   3.327e-4
0.984,   3.289e-4
0.987,   3.264e-4
0.990,   3.262e-4
0.993,   3.226e-4
0.996,   3.201e-4
0.999,   3.180e-4
1.002,   3.174e-4
1.005,   3.160e-4
1.008,   3.154e-4
1.011,   3.132e-4
1.014,   3.134e-4
1.017,   3.142e-4
1.020,   3.133e-4
1.023,   3.130e-4
1.026,   3.131e-4
1.029,   3.135e-4
1.032,   3.120e-4
1.035,   3.106e-4
1.038,   3.109e-4
1.041,   3.119e-4
1.044,   3.131e-4
1.047,   3.118e-4
1.050,   3.120e-4
1.053,   3.130e-4
1.056,   3.131e-4
1.059,   3.128e-4
1.062,   3.134e-4
1.065,   3.135e-4
1.068,   3.164e-4
1.071,   3.161e-4
1.074,   3.191e-4
1.077,   3.177e-4
1.080,   3.187e-4
1.083,   3.214e-4
1.086,   3.230e-4
1.089,   3.243e-4
1.092,   3.272e-4
1.095,   3.290e-4
1.098,   3.308e-4
1.101,   3.303e-4
1.104,   3.318e-4
1.107,   3.341e-4
1.110,   3.358e-4
1.113,   3.371e-4
1.116,   3.368e-4
1.119,   3.385e-4
1.122,   3.424e-4
1.125,   3.401e-4
1.128,   3.405e-4
1.131,   3.429e-4
1.134,   3.423e-4
1.137,   3.415e-4
1.140,   3.430e-4
1.143,   3.451e-4
1.146,   3.462e-4
1.149,   3.470e-4
1.152,   3.494e-4
1.155,   3.518e-4
1.158,   3.535e-4
1.161,   3.538e-4
1.164,   3.563e-4
1.167,   3.587e-4
1.170,   3.607e-4
1.173,   3.610e-4
1.176,   3.636e-4
1.179,   3.667e-4
1.182,   3.681e-4
1.185,   3.714e-4
1.188,   3.722e-4
1.191,   3.771e-4
1.194,   3.796e-4
1.197,   3.833e-4
1.200,   3.861e-4
1.203,   3.881e-4
1.206,   3.917e-4
1.209,   3.956e-4
1.212,   3.975e-4
1.215,   4.013e-4
1.218,   4.015e-4
1.221,   4.048e-4
1.224,   4.081e-4
1.227,   4.127e-4
1.230,   4.173e-4
1.233,   4.174e-4
1.236,   4.231e-4
1.239,   4.268e-4
1.242,   4.295e-4
1.245,   4.343e-4
1.248,   4.367e-4
1.251,   4.424e-4
1.254,   4.438e-4
1.257,   4.479e-4
1.260,   4.526e-4
1.263,   4.560e-4
1.266,   4.608e-4
1.269,   4.666e-4
1.272,   4.696e-4
1.275,   4.753e-4
1.278,   4.774e-4
1.281,   4.809e-4
1.284,   4.877e-4
1.287,   4.906e-4
1.290,   4.914e-4
1.293,   4.989e-4
1.296,   5.007e-4
1.299,   5.067e-4
1.302,   5.103e-4
1.305,   5.141e-4
1.308,   5.209e-4
1.311,   5.271e-4
1.314,   5.322e-4
1.317,   5.375e-4
1.320,   5.439e-4
1.323,   5.482e-4
1.326,   5.567e-4
1.329,   5.677e-4
1.332,   5.742e-4
1.335,   5.798e-4
1.338,   5.895e-4
1.341,   5.956e-4
1.344,   6.072e-4
1.347,   6.134e-4
1.350,   6.219e-4
1.353,   6.314e-4
1.356,   6.409e-4
1.359,   6.549e-4
1.362,   6.618e-4
1.365,   6.718e-4
1.368,   6.831e-4
1.371,   6.942e-4
1.374,   7.081e-4
1.377,   7.192e-4
1.380,   7.342e-4
1.383,   7.506e-4
1.386,   7.676e-4
1.389,   7.822e-4
1.392,   7.986e-4
1.395,   8.219e-4
1.398,   8.473e-4
1.401,   8.700e-4
1.404,   8.979e-4
1.407,   9.288e-4
1.410,   9.626e-4
1.413,   1.002e-3
1.416,   1.044e-3
1.419,   1.098e-3
1.422,   1.155e-3
1.425,   1.223e-3
1.428,   1.298e-3
1.431,   1.380e-3
1.434,   1.480e-3
1.437,   1.593e-3
1.440,   1.706e-3
1.443,   1.853e-3
1.446,   2.019e-3
1.449,   2.195e-3
1.452,   2.404e-3
1.455,   2.615e-3
1.458,   2.857e-3
1.461,   3.111e-3
1.464,   3.383e-3
1.467,   3.698e-3
1.470,   4.017e-3
1.473,   4.363e-3
1.476,   4.744e-3
1.479,   5.130e-3
1.482,   5.499e-3
1.485,   5.943e-3
1.488,   6.392e-3
1.491,   6.866e-3
1.494,   7.326e-3
1.497,   7.835e-3
1.500,   8.310e-3
1.503,   8.853e-3
1.506,   9.334e-3
1.509,   9.752e-3
1.512,   9.974e-3
1.515,   1.006e-2
1.518,   1.007e-2
1.521,   1.007e-2
1.524,   1.007e-2
1.527,   1.007e-2
1.530,   1.007e-2
1.531,   1.007e-2