File: Experimental Records, Raw Data, and Supplementary Notes and Figures/batch5/final400/B5_BEST_400_#1_Full(#16)-225mV.txt
May 31, 2023   16:29:26
Linear Sweep Voltammetry
File: d:\current work\al_oer\electrochemical test data\batch 5\400\B5_BEST_400_#1_Full(#16)-225mV.txt
Data Source:  Experiment
Instrument Model:  CHI660E
Header:
Note:

Init E (V) = 0.901

Final E (V) = 1.530

Scan Rate (V/s) = 0.010
Sample Interval (V) = 0.001
Quiet Time (sec) = 2
Sensitivity (A/V) = 0.001
Comp R (ohm) = 6.0

Results:

Channel 1:

Potential/V, Current/A
0.901,   1.822e-4
0.904,   2.112e-4
0.907,   2.100e-4
0.910,   2.090e-4
0.913,   2.052e-4
0.916,   2.012e-4
0.919,   2.005e-4
0.922,   1.956e-4
0.925,   1.944e-4
0.928,   1.913e-4
0.931,   1.881e-4
0.934,   1.871e-4
0.937,   1.842e-4
0.940,   1.824e-4
0.943,   1.810e-4
0.946,   1.787e-4
0.949,   1.787e-4
0.952,   1.755e-4
0.955,   1.742e-4
0.958,   1.733e-4
0.961,   1.707e-4
0.964,   1.711e-4
0.967,   1.692e-4
0.970,   1.677e-4
0.973,   1.678e-4
0.976,   1.663e-4
0.979,   1.652e-4
0.982,   1.645e-4
0.985,   1.633e-4
0.988,   1.628e-4
0.991,   1.620e-4
0.994,   1.605e-4
0.997,   1.614e-4
1.000,   1.593e-4
1.003,   1.593e-4
1.006,   1.587e-4
1.009,   1.563e-4
1.012,   1.586e-4
1.015,   1.561e-4
1.018,   1.568e-4
1.021,   1.566e-4
1.024,   1.551e-4
1.027,   1.558e-4
1.030,   1.552e-4
1.033,   1.553e-4
1.036,   1.564e-4
1.039,   1.536e-4
1.042,   1.548e-4
1.045,   1.550e-4
1.048,   1.541e-4
1.051,   1.563e-4
1.054,   1.543e-4
1.057,   1.541e-4
1.060,   1.554e-4
1.063,   1.554e-4
1.066,   1.558e-4
1.069,   1.544e-4
1.072,   1.539e-4
1.075,   1.546e-4
1.078,   1.537e-4
1.081,   1.553e-4
1.084,   1.549e-4
1.087,   1.544e-4
1.090,   1.561e-4
1.093,   1.555e-4
1.096,   1.565e-4
1.099,   1.572e-4
1.102,   1.567e-4
1.105,   1.587e-4
1.108,   1.572e-4
1.111,   1.571e-4
1.114,   1.598e-4
1.117,   1.584e-4
1.120,   1.606e-4
1.123,   1.609e-4
1.126,   1.599e-4
1.129,   1.623e-4
1.132,   1.620e-4
1.135,   1.624e-4
1.138,   1.642e-4
1.141,   1.640e-4
1.144,   1.657e-4
1.147,   1.649e-4
1.150,   1.650e-4
1.153,   1.678e-4
1.156,   1.664e-4
1.159,   1.685e-4
1.162,   1.692e-4
1.165,   1.684e-4
1.168,   1.708e-4
1.171,   1.715e-4
1.174,   1.704e-4
1.177,   1.726e-4
1.180,   1.725e-4
1.183,   1.748e-4
1.186,   1.761e-4
1.189,   1.748e-4
1.192,   1.788e-4
1.195,   1.786e-4
1.198,   1.791e-4
1.201,   1.817e-4
1.204,   1.798e-4
1.207,   1.826e-4
1.210,   1.840e-4
1.213,   1.833e-4
1.216,   1.876e-4
1.219,   1.869e-4
1.222,   1.884e-4
1.225,   1.910e-4
1.228,   1.899e-4
1.231,   1.938e-4
1.234,   1.939e-4
1.237,   1.950e-4
1.240,   1.977e-4
1.243,   1.977e-4
1.246,   2.000e-4
1.249,   2.016e-4
1.252,   2.008e-4
1.255,   2.057e-4
1.258,   2.047e-4
1.261,   2.078e-4
1.264,   2.093e-4
1.267,   2.090e-4
1.270,   2.132e-4
1.273,   2.136e-4
1.276,   2.145e-4
1.279,   2.187e-4
1.282,   2.187e-4
1.285,   2.219e-4
1.288,   2.246e-4
1.291,   2.232e-4
1.294,   2.295e-4
1.297,   2.285e-4
1.300,   2.301e-4
1.303,   2.352e-4
1.306,   2.336e-4
1.309,   2.398e-4
1.312,   2.408e-4
1.315,   2.408e-4
1.318,   2.478e-4
1.321,   2.465e-4
1.324,   2.527e-4
1.327,   2.552e-4
1.330,   2.546e-4
1.333,   2.627e-4
1.336,   2.617e-4
1.339,   2.655e-4
1.342,   2.724e-4
1.345,   2.709e-4
1.348,   2.798e-4
1.351,   2.822e-4
1.354,   2.840e-4
1.357,   2.937e-4
1.360,   2.947e-4
1.363,   3.005e-4
1.366,   3.076e-4
1.369,   3.091e-4
1.372,   3.232e-4
1.375,   3.233e-4
1.378,   3.306e-4
1.381,   3.429e-4
1.384,   3.464e-4
1.387,   3.616e-4
1.390,   3.695e-4
1.393,   3.756e-4
1.396,   3.962e-4
1.399,   4.052e-4
1.402,   4.208e-4
1.405,   4.432e-4
1.408,   4.602e-4
1.411,   4.921e-4
1.414,   5.131e-4
1.417,   5.398e-4
1.420,   5.890e-4
1.423,   6.222e-4
1.426,   6.819e-4
1.429,   7.493e-4
1.432,   8.101e-4
1.435,   9.074e-4
1.438,   9.935e-4
1.441,   1.112e-3
1.444,   1.257e-3
1.447,   1.389e-3
1.450,   1.582e-3
1.453,   1.777e-3
1.456,   1.971e-3
1.459,   2.245e-3
1.462,   2.474e-3
1.465,   2.787e-3
1.468,   3.135e-3
1.471,   3.428e-3
1.474,   3.836e-3
1.477,   4.222e-3
1.480,   4.550e-3
1.483,   5.059e-3
1.486,   5.425e-3
1.489,   5.873e-3
1.492,   6.340e-3
1.495,   6.573e-3
1.498,   7.110e-3
1.501,   7.500e-3
1.504,   7.802e-3
1.507,   8.254e-3
1.510,   8.294e-3
1.513,   8.741e-3
1.516,   9.013e-3
1.519,   9.075e-3
1.522,   9.245e-3
1.525,   9.230e-3
1.528,   9.354e-3
1.530,   9.487e-3