File: Experimental Records, Raw Data, and Supplementary Notes and Figures/batch5/final400/B5_BEST_400_#1_High_Quality(#21)-245mV.txt
May 31, 2023   15:53:30
Linear Sweep Voltammetry
File: d:\current work\al_oer\electrochemical test data\batch 5\400\B5_BEST_400_#1_High_Quality(#21)-245mV.txt
Data Source:  Experiment
Instrument Model:  CHI660E
Header:
Note:

Init E (V) = 0.901

Final E (V) = 1.570

Scan Rate (V/s) = 0.010
Sample Interval (V) = 0.001
Quiet Time (sec) = 2
Sensitivity (A/V) = 0.001
Comp R (ohm) = 6.3

Results:

Channel 1:

Potential/V, Current/A
0.901,   1.463e-4
0.904,   1.627e-4
0.907,   1.591e-4
0.910,   1.574e-4
0.913,   1.533e-4
0.916,   1.514e-4
0.919,   1.479e-4
0.922,   1.459e-4
0.925,   1.431e-4
0.928,   1.402e-4
0.931,   1.385e-4
0.934,   1.364e-4
0.937,   1.346e-4
0.940,   1.328e-4
0.943,   1.313e-4
0.946,   1.301e-4
0.949,   1.283e-4
0.952,   1.264e-4
0.955,   1.257e-4
0.958,   1.241e-4
0.961,   1.233e-4
0.964,   1.215e-4
0.967,   1.211e-4
0.970,   1.193e-4
0.973,   1.192e-4
0.976,   1.172e-4
0.979,   1.173e-4
0.982,   1.162e-4
0.985,   1.155e-4
0.988,   1.142e-4
0.991,   1.140e-4
0.994,   1.126e-4
0.997,   1.129e-4
1.000,   1.118e-4
1.003,   1.117e-4
1.006,   1.108e-4
1.009,   1.106e-4
1.012,   1.099e-4
1.015,   1.097e-4
1.018,   1.096e-4
1.021,   1.091e-4
1.024,   1.093e-4
1.027,   1.080e-4
1.030,   1.083e-4
1.033,   1.073e-4
1.036,   1.080e-4
1.039,   1.069e-4
1.042,   1.082e-4
1.045,   1.066e-4
1.048,   1.079e-4
1.051,   1.063e-4
1.054,   1.081e-4
1.057,   1.063e-4
1.060,   1.080e-4
1.063,   1.067e-4
1.066,   1.077e-4
1.069,   1.066e-4
1.072,   1.077e-4
1.075,   1.070e-4
1.078,   1.080e-4
1.081,   1.076e-4
1.084,   1.081e-4
1.087,   1.083e-4
1.090,   1.086e-4
1.093,   1.091e-4
1.096,   1.091e-4
1.099,   1.099e-4
1.102,   1.093e-4
1.105,   1.103e-4
1.108,   1.089e-4
1.111,   1.116e-4
1.114,   1.103e-4
1.117,   1.130e-4
1.120,   1.120e-4
1.123,   1.137e-4
1.126,   1.122e-4
1.129,   1.144e-4
1.132,   1.137e-4
1.135,   1.154e-4
1.138,   1.152e-4
1.141,   1.168e-4
1.144,   1.168e-4
1.147,   1.180e-4
1.150,   1.180e-4
1.153,   1.190e-4
1.156,   1.194e-4
1.159,   1.203e-4
1.162,   1.212e-4
1.165,   1.213e-4
1.168,   1.224e-4
1.171,   1.226e-4
1.174,   1.237e-4
1.177,   1.232e-4
1.180,   1.252e-4
1.183,   1.242e-4
1.186,   1.260e-4
1.189,   1.254e-4
1.192,   1.274e-4
1.195,   1.263e-4
1.198,   1.284e-4
1.201,   1.274e-4
1.204,   1.294e-4
1.207,   1.288e-4
1.210,   1.310e-4
1.213,   1.310e-4
1.216,   1.315e-4
1.219,   1.306e-4
1.222,   1.320e-4
1.225,   1.329e-4
1.228,   1.339e-4
1.231,   1.339e-4
1.234,   1.333e-4
1.237,   1.352e-4
1.240,   1.344e-4
1.243,   1.364e-4
1.246,   1.348e-4
1.249,   1.369e-4
1.252,   1.355e-4
1.255,   1.380e-4
1.258,   1.362e-4
1.261,   1.386e-4
1.264,   1.374e-4
1.267,   1.386e-4
1.270,   1.386e-4
1.273,   1.397e-4
1.276,   1.390e-4
1.279,   1.413e-4
1.282,   1.404e-4
1.285,   1.412e-4
1.288,   1.412e-4
1.291,   1.425e-4
1.294,   1.426e-4
1.297,   1.427e-4
1.300,   1.439e-4
1.303,   1.424e-4
1.306,   1.456e-4
1.309,   1.441e-4
1.312,   1.468e-4
1.315,   1.454e-4
1.318,   1.475e-4
1.321,   1.459e-4
1.324,   1.483e-4
1.327,   1.480e-4
1.330,   1.508e-4
1.333,   1.504e-4
1.336,   1.524e-4
1.339,   1.520e-4
1.342,   1.536e-4
1.345,   1.540e-4
1.348,   1.563e-4
1.351,   1.568e-4
1.354,   1.594e-4
1.357,   1.602e-4
1.360,   1.625e-4
1.363,   1.640e-4
1.366,   1.658e-4
1.369,   1.678e-4
1.372,   1.701e-4
1.375,   1.730e-4
1.378,   1.742e-4
1.381,   1.782e-4
1.384,   1.813e-4
1.387,   1.870e-4
1.390,   1.886e-4
1.393,   1.949e-4
1.396,   1.975e-4
1.399,   2.057e-4
1.402,   2.094e-4
1.405,   2.200e-4
1.408,   2.257e-4
1.411,   2.388e-4
1.414,   2.473e-4
1.417,   2.638e-4
1.420,   2.774e-4
1.423,   2.994e-4
1.426,   3.194e-4
1.429,   3.466e-4
1.432,   3.782e-4
1.435,   4.140e-4
1.438,   4.603e-4
1.441,   5.053e-4
1.444,   5.707e-4
1.447,   6.311e-4
1.450,   7.190e-4
1.453,   7.947e-4
1.456,   9.130e-4
1.459,   1.010e-3
1.462,   1.161e-3
1.465,   1.281e-3
1.468,   1.467e-3
1.471,   1.618e-3
1.474,   1.847e-3
1.477,   2.029e-3
1.480,   2.293e-3
1.483,   2.511e-3
1.486,   2.791e-3
1.489,   3.071e-3
1.492,   3.384e-3
1.495,   3.708e-3
1.498,   3.993e-3
1.501,   4.365e-3
1.504,   4.682e-3
1.507,   5.104e-3
1.510,   5.430e-3
1.513,   5.913e-3
1.516,   6.247e-3
1.519,   6.751e-3
1.522,   7.006e-3
1.525,   7.512e-3
1.528,   7.760e-3
1.531,   8.243e-3
1.534,   8.415e-3
1.537,   8.909e-3
1.540,   9.074e-3
1.543,   9.535e-3
1.546,   9.612e-3
1.549,   9.877e-3
1.552,   1.000e-2
1.555,   1.007e-2
1.558,   1.007e-2
1.561,   1.007e-2
1.564,   1.007e-2
1.567,   1.007e-2
1.570,   1.007e-2