File: Experimental Records, Raw Data, and Supplementary Notes and Figures/batch5/final400/B5_BEST_400_#1_Full(#1)-188mV.txt
May 30, 2023   20:20:40
Linear Sweep Voltammetry
File: d:\current work\al_oer\electrochemical test data\batch 5\400\B5_BEST_400_#1_Full(#1)-188mV.txt
Data Source:  Experiment
Instrument Model:  CHI660E
Header:
Note:

Init E (V) = 0.901

Final E (V) = 1.458

Scan Rate (V/s) = 0.010
Sample Interval (V) = 0.001
Quiet Time (sec) = 2
Sensitivity (A/V) = 0.001
Comp R (ohm) = 5.2

Results:

Channel 1:

Potential/V, Current/A
0.901,   5.346e-4
0.903,   5.350e-4
0.905,   4.950e-4
0.907,   4.751e-4
0.909,   4.406e-4
0.911,   4.152e-4
0.913,   4.081e-4
0.915,   3.867e-4
0.917,   3.679e-4
0.919,   3.687e-4
0.921,   3.574e-4
0.923,   3.391e-4
0.925,   3.386e-4
0.927,   3.356e-4
0.929,   3.179e-4
0.931,   3.167e-4
0.933,   3.196e-4
0.935,   3.074e-4
0.937,   2.993e-4
0.939,   3.072e-4
0.941,   2.992e-4
0.943,   2.875e-4
0.945,   2.927e-4
0.947,   2.926e-4
0.949,   2.814e-4
0.951,   2.827e-4
0.953,   2.853e-4
0.955,   2.762e-4
0.957,   2.737e-4
0.959,   2.794e-4
0.961,   2.727e-4
0.963,   2.662e-4
0.965,   2.762e-4
0.967,   2.681e-4
0.969,   2.619e-4
0.971,   2.706e-4
0.973,   2.688e-4
0.975,   2.579e-4
0.977,   2.630e-4
0.979,   2.686e-4
0.981,   2.580e-4
0.983,   2.581e-4
0.985,   2.639e-4
0.987,   2.625e-4
0.989,   2.560e-4
0.991,   2.576e-4
0.993,   2.584e-4
0.995,   2.541e-4
0.997,   2.603e-4
0.999,   2.589e-4
1.001,   2.507e-4
1.003,   2.567e-4
1.005,   2.580e-4
1.007,   2.516e-4
1.009,   2.493e-4
1.011,   2.551e-4
1.013,   2.505e-4
1.015,   2.495e-4
1.017,   2.565e-4
1.019,   2.515e-4
1.021,   2.491e-4
1.023,   2.539e-4
1.025,   2.525e-4
1.027,   2.455e-4
1.029,   2.484e-4
1.031,   2.506e-4
1.033,   2.483e-4
1.035,   2.477e-4
1.037,   2.548e-4
1.039,   2.495e-4
1.041,   2.479e-4
1.043,   2.556e-4
1.045,   2.475e-4
1.047,   2.462e-4
1.049,   2.533e-4
1.051,   2.518e-4
1.053,   2.480e-4
1.055,   2.512e-4
1.057,   2.538e-4
1.059,   2.495e-4
1.061,   2.502e-4
1.063,   2.557e-4
1.065,   2.535e-4
1.067,   2.486e-4
1.069,   2.545e-4
1.071,   2.519e-4
1.073,   2.477e-4
1.075,   2.532e-4
1.077,   2.553e-4
1.079,   2.490e-4
1.081,   2.554e-4
1.083,   2.568e-4
1.085,   2.503e-4
1.087,   2.536e-4
1.089,   2.575e-4
1.091,   2.545e-4
1.093,   2.529e-4
1.095,   2.631e-4
1.097,   2.573e-4
1.099,   2.546e-4
1.101,   2.665e-4
1.103,   2.597e-4
1.105,   2.545e-4
1.107,   2.669e-4
1.109,   2.651e-4
1.111,   2.597e-4
1.113,   2.591e-4
1.115,   2.710e-4
1.117,   2.591e-4
1.119,   2.629e-4
1.121,   2.703e-4
1.123,   2.643e-4
1.125,   2.636e-4
1.127,   2.735e-4
1.129,   2.676e-4
1.131,   2.666e-4
1.133,   2.751e-4
1.135,   2.692e-4
1.137,   2.681e-4
1.139,   2.745e-4
1.141,   2.747e-4
1.143,   2.723e-4
1.145,   2.734e-4
1.147,   2.808e-4
1.149,   2.769e-4
1.151,   2.743e-4
1.153,   2.841e-4
1.155,   2.808e-4
1.157,   2.770e-4
1.159,   2.862e-4
1.161,   2.874e-4
1.163,   2.809e-4
1.165,   2.834e-4
1.167,   2.862e-4
1.169,   2.850e-4
1.171,   2.861e-4
1.173,   2.934e-4
1.175,   2.912e-4
1.177,   2.828e-4
1.179,   2.936e-4
1.181,   2.964e-4
1.183,   2.877e-4
1.185,   2.957e-4
1.187,   3.052e-4
1.189,   2.929e-4
1.191,   2.942e-4
1.193,   3.061e-4
1.195,   2.994e-4
1.197,   2.971e-4
1.199,   3.099e-4
1.201,   3.078e-4
1.203,   3.008e-4
1.205,   3.071e-4
1.207,   3.170e-4
1.209,   3.052e-4
1.211,   3.121e-4
1.213,   3.171e-4
1.215,   3.134e-4
1.217,   3.095e-4
1.219,   3.268e-4
1.221,   3.205e-4
1.223,   3.110e-4
1.225,   3.267e-4
1.227,   3.260e-4
1.229,   3.196e-4
1.231,   3.316e-4
1.233,   3.328e-4
1.235,   3.267e-4
1.237,   3.329e-4
1.239,   3.390e-4
1.241,   3.312e-4
1.243,   3.336e-4
1.245,   3.467e-4
1.247,   3.422e-4
1.249,   3.371e-4
1.251,   3.465e-4
1.253,   3.497e-4
1.255,   3.464e-4
1.257,   3.493e-4
1.259,   3.580e-4
1.261,   3.538e-4
1.263,   3.497e-4
1.265,   3.622e-4
1.267,   3.622e-4
1.269,   3.617e-4
1.271,   3.698e-4
1.273,   3.625e-4
1.275,   3.707e-4
1.277,   3.725e-4
1.279,   3.685e-4
1.281,   3.725e-4
1.283,   3.765e-4
1.285,   3.820e-4
1.287,   3.769e-4
1.289,   3.840e-4
1.291,   3.916e-4
1.293,   3.857e-4
1.295,   3.900e-4
1.297,   3.977e-4
1.299,   3.948e-4
1.301,   3.987e-4
1.303,   4.039e-4
1.305,   4.057e-4
1.307,   4.022e-4
1.309,   4.107e-4
1.311,   4.121e-4
1.313,   4.131e-4
1.315,   4.165e-4
1.317,   4.256e-4
1.319,   4.216e-4
1.321,   4.232e-4
1.323,   4.367e-4
1.325,   4.364e-4
1.327,   4.406e-4
1.329,   4.437e-4
1.331,   4.492e-4
1.333,   4.571e-4
1.335,   4.477e-4
1.337,   4.553e-4
1.339,   4.718e-4
1.341,   4.736e-4
1.343,   4.776e-4
1.345,   4.831e-4
1.347,   4.919e-4
1.349,   4.982e-4
1.351,   4.990e-4
1.353,   5.121e-4
1.355,   5.243e-4
1.357,   5.234e-4
1.359,   5.443e-4
1.361,   5.528e-4
1.363,   5.549e-4
1.365,   5.669e-4
1.367,   5.945e-4
1.369,   6.013e-4
1.371,   6.088e-4
1.373,   6.384e-4
1.375,   6.498e-4
1.377,   6.649e-4
1.379,   7.012e-4
1.381,   7.048e-4
1.383,   7.394e-4
1.385,   7.658e-4
1.387,   7.847e-4
1.389,   8.179e-4
1.391,   8.587e-4
1.393,   8.833e-4
1.395,   9.284e-4
1.397,   9.561e-4
1.399,   1.005e-3
1.401,   1.064e-3
1.403,   1.111e-3
1.405,   1.185e-3
1.407,   1.267e-3
1.409,   1.325e-3
1.411,   1.446e-3
1.413,   1.529e-3
1.415,   1.679e-3
1.417,   1.802e-3
1.419,   1.933e-3
1.421,   2.117e-3
1.423,   2.315e-3
1.425,   2.511e-3
1.427,   2.816e-3
1.429,   3.083e-3
1.431,   3.372e-3
1.433,   3.763e-3
1.435,   4.191e-3
1.437,   4.676e-3
1.439,   5.098e-3
1.441,   5.644e-3
1.443,   6.235e-3
1.445,   6.894e-3
1.447,   7.631e-3
1.449,   8.449e-3
1.451,   9.191e-3
1.453,   9.825e-3
1.455,   1.007e-2
1.457,   1.007e-2
1.458,   1.007e-2