File: Experimental Records, Raw Data, and Supplementary Notes and Figures/batch5/final400/B5_BEST_400_#1_Full(#5)-303mV.txt
May 30, 2023   20:48:56
Linear Sweep Voltammetry
File: d:\current work\al_oer\electrochemical test data\batch 5\400\B5_BEST_400_#1_Full(#5)-303mV.txt
Data Source:  Experiment
Instrument Model:  CHI660E
Header:
Note:

Init E (V) = 0.905

Final E (V) = 1.704

Scan Rate (V/s) = 0.010
Sample Interval (V) = 0.001
Quiet Time (sec) = 2
Sensitivity (A/V) = 0.001
Comp R (ohm) = 6.2

Results:

Channel 1:
Ep = 1.673V
ip = 6.013e-3A
Ah = 7.052e-2C

Potential/V, Current/A
0.905,   4.838e-5
0.908,   4.573e-5
0.911,   4.272e-5
0.914,   4.016e-5
0.917,   3.788e-5
0.920,   3.598e-5
0.923,   3.434e-5
0.926,   3.280e-5
0.929,   3.145e-5
0.932,   3.025e-5
0.935,   2.915e-5
0.938,   2.813e-5
0.941,   2.726e-5
0.944,   2.646e-5
0.947,   2.567e-5
0.950,   2.501e-5
0.953,   2.435e-5
0.956,   2.372e-5
0.959,   2.320e-5
0.962,   2.269e-5
0.965,   2.221e-5
0.968,   2.175e-5
0.971,   2.135e-5
0.974,   2.094e-5
0.977,   2.058e-5
0.980,   2.028e-5
0.983,   1.992e-5
0.986,   1.960e-5
0.989,   1.931e-5
0.992,   1.901e-5
0.995,   1.878e-5
0.998,   1.854e-5
1.001,   1.831e-5
1.004,   1.806e-5
1.007,   1.786e-5
1.010,   1.765e-5
1.013,   1.747e-5
1.016,   1.731e-5
1.019,   1.712e-5
1.022,   1.698e-5
1.025,   1.681e-5
1.028,   1.668e-5
1.031,   1.655e-5
1.034,   1.646e-5
1.037,   1.630e-5
1.040,   1.619e-5
1.043,   1.607e-5
1.046,   1.602e-5
1.049,   1.591e-5
1.052,   1.581e-5
1.055,   1.575e-5
1.058,   1.568e-5
1.061,   1.560e-5
1.064,   1.554e-5
1.067,   1.546e-5
1.070,   1.542e-5
1.073,   1.537e-5
1.076,   1.529e-5
1.079,   1.527e-5
1.082,   1.526e-5
1.085,   1.522e-5
1.088,   1.518e-5
1.091,   1.514e-5
1.094,   1.513e-5
1.097,   1.515e-5
1.100,   1.513e-5
1.103,   1.516e-5
1.106,   1.513e-5
1.109,   1.512e-5
1.112,   1.513e-5
1.115,   1.515e-5
1.118,   1.515e-5
1.121,   1.515e-5
1.124,   1.516e-5
1.127,   1.516e-5
1.130,   1.515e-5
1.133,   1.522e-5
1.136,   1.524e-5
1.139,   1.528e-5
1.142,   1.536e-5
1.145,   1.534e-5
1.148,   1.535e-5
1.151,   1.543e-5
1.154,   1.548e-5
1.157,   1.549e-5
1.160,   1.557e-5
1.163,   1.559e-5
1.166,   1.563e-5
1.169,   1.561e-5
1.172,   1.576e-5
1.175,   1.579e-5
1.178,   1.577e-5
1.181,   1.587e-5
1.184,   1.600e-5
1.187,   1.605e-5
1.190,   1.611e-5
1.193,   1.614e-5
1.196,   1.622e-5
1.199,   1.629e-5
1.202,   1.636e-5
1.205,   1.642e-5
1.208,   1.650e-5
1.211,   1.658e-5
1.214,   1.667e-5
1.217,   1.674e-5
1.220,   1.683e-5
1.223,   1.688e-5
1.226,   1.700e-5
1.229,   1.701e-5
1.232,   1.718e-5
1.235,   1.726e-5
1.238,   1.740e-5
1.241,   1.741e-5
1.244,   1.757e-5
1.247,   1.760e-5
1.250,   1.776e-5
1.253,   1.782e-5
1.256,   1.797e-5
1.259,   1.814e-5
1.262,   1.820e-5
1.265,   1.829e-5
1.268,   1.840e-5
1.271,   1.856e-5
1.274,   1.861e-5
1.277,   1.878e-5
1.280,   1.886e-5
1.283,   1.899e-5
1.286,   1.920e-5
1.289,   1.933e-5
1.292,   1.950e-5
1.295,   1.959e-5
1.298,   1.980e-5
1.301,   1.993e-5
1.304,   2.010e-5
1.307,   2.028e-5
1.310,   2.042e-5
1.313,   2.060e-5
1.316,   2.079e-5
1.319,   2.096e-5
1.322,   2.116e-5
1.325,   2.138e-5
1.328,   2.155e-5
1.331,   2.183e-5
1.334,   2.204e-5
1.337,   2.229e-5
1.340,   2.253e-5
1.343,   2.287e-5
1.346,   2.314e-5
1.349,   2.344e-5
1.352,   2.365e-5
1.355,   2.410e-5
1.358,   2.442e-5
1.361,   2.478e-5
1.364,   2.523e-5
1.367,   2.563e-5
1.370,   2.608e-5
1.373,   2.651e-5
1.376,   2.700e-5
1.379,   2.766e-5
1.382,   2.824e-5
1.385,   2.882e-5
1.388,   2.957e-5
1.391,   3.028e-5
1.394,   3.112e-5
1.397,   3.203e-5
1.400,   3.316e-5
1.403,   3.422e-5
1.406,   3.565e-5
1.409,   3.713e-5
1.412,   3.882e-5
1.415,   4.103e-5
1.418,   4.340e-5
1.421,   4.622e-5
1.424,   4.954e-5
1.427,   5.344e-5
1.430,   5.800e-5
1.433,   6.359e-5
1.436,   7.012e-5
1.439,   7.795e-5
1.442,   8.696e-5
1.445,   9.777e-5
1.448,   1.103e-4
1.451,   1.250e-4
1.454,   1.422e-4
1.457,   1.620e-4
1.460,   1.850e-4
1.463,   2.108e-4
1.466,   2.405e-4
1.469,   2.737e-4
1.472,   3.108e-4
1.475,   3.514e-4
1.478,   3.959e-4
1.481,   4.433e-4
1.484,   4.934e-4
1.487,   5.455e-4
1.490,   6.018e-4
1.493,   6.605e-4
1.496,   7.218e-4
1.499,   7.870e-4
1.502,   8.559e-4
1.505,   9.329e-4
1.508,   1.013e-3
1.511,   1.101e-3
1.514,   1.196e-3
1.517,   1.295e-3
1.520,   1.397e-3
1.523,   1.507e-3
1.526,   1.619e-3
1.529,   1.742e-3
1.532,   1.867e-3
1.535,   1.994e-3
1.538,   2.127e-3
1.541,   2.258e-3
1.544,   2.392e-3
1.547,   2.530e-3
1.550,   2.668e-3
1.553,   2.799e-3
1.556,   2.940e-3
1.559,   3.083e-3
1.562,   3.222e-3
1.565,   3.363e-3
1.568,   3.481e-3
1.571,   3.618e-3
1.574,   3.738e-3
1.577,   3.881e-3
1.580,   4.020e-3
1.583,   4.126e-3
1.586,   4.240e-3
1.589,   4.368e-3
1.592,   4.475e-3
1.595,   4.609e-3
1.598,   4.718e-3
1.601,   4.793e-3
1.604,   4.917e-3
1.607,   5.033e-3
1.610,   5.113e-3
1.613,   5.234e-3
1.616,   5.320e-3
1.619,   5.402e-3
1.622,   5.491e-3
1.625,   5.563e-3
1.628,   5.696e-3
1.631,   5.734e-3
1.634,   5.777e-3
1.637,   5.888e-3
1.640,   5.936e-3
1.643,   6.021e-3
1.646,   6.082e-3
1.649,   6.162e-3
1.652,   6.273e-3
1.655,   6.276e-3
1.658,   6.275e-3
1.661,   6.277e-3
1.664,   6.251e-3
1.667,   6.233e-3
1.670,   6.227e-3
1.673,   6.212e-3
1.676,   6.221e-3
1.679,   6.281e-3
1.682,   6.211e-3
1.685,   6.165e-3
1.688,   6.129e-3
1.691,   6.245e-3
1.694,   6.181e-3
1.697,   6.102e-3
1.700,   6.034e-3
1.703,   5.989e-3
1.704,   6.008e-3