File: Experimental Records, Raw Data, and Supplementary Notes and Figures/batch5/final400/B5_BEST_400_#1_High_Quality(#26)-227mV.txt
May 31, 2023   13:13:50
Linear Sweep Voltammetry
File: d:\current work\al_oer\electrochemical test data\batch 5\400\B5_BEST_400_#1_High_Quality(#26)-227mV.txt
Data Source:  Experiment
Instrument Model:  CHI660E
Header:
Note:

Init E (V) = 0.899

Final E (V) = 1.528

Scan Rate (V/s) = 0.010
Sample Interval (V) = 0.001
Quiet Time (sec) = 2
Sensitivity (A/V) = 0.001
Comp R (ohm) = 6.1

Results:

Channel 1:

Potential/V, Current/A
0.899,   1.415e-4
0.902,   1.709e-4
0.905,   1.696e-4
0.908,   1.699e-4
0.911,   1.666e-4
0.914,   1.650e-4
0.917,   1.641e-4
0.920,   1.604e-4
0.923,   1.581e-4
0.926,   1.567e-4
0.929,   1.551e-4
0.932,   1.526e-4
0.935,   1.529e-4
0.938,   1.502e-4
0.941,   1.504e-4
0.944,   1.500e-4
0.947,   1.472e-4
0.950,   1.483e-4
0.953,   1.446e-4
0.956,   1.457e-4
0.959,   1.456e-4
0.962,   1.439e-4
0.965,   1.416e-4
0.968,   1.427e-4
0.971,   1.411e-4
0.974,   1.411e-4
0.977,   1.406e-4
0.980,   1.408e-4
0.983,   1.398e-4
0.986,   1.390e-4
0.989,   1.384e-4
0.992,   1.380e-4
0.995,   1.389e-4
0.998,   1.390e-4
1.001,   1.387e-4
1.004,   1.378e-4
1.007,   1.380e-4
1.010,   1.381e-4
1.013,   1.360e-4
1.016,   1.373e-4
1.019,   1.363e-4
1.022,   1.379e-4
1.025,   1.370e-4
1.028,   1.381e-4
1.031,   1.370e-4
1.034,   1.379e-4
1.037,   1.376e-4
1.040,   1.379e-4
1.043,   1.378e-4
1.046,   1.386e-4
1.049,   1.392e-4
1.052,   1.387e-4
1.055,   1.394e-4
1.058,   1.380e-4
1.061,   1.418e-4
1.064,   1.387e-4
1.067,   1.407e-4
1.070,   1.401e-4
1.073,   1.407e-4
1.076,   1.397e-4
1.079,   1.410e-4
1.082,   1.431e-4
1.085,   1.406e-4
1.088,   1.435e-4
1.091,   1.430e-4
1.094,   1.439e-4
1.097,   1.446e-4
1.100,   1.441e-4
1.103,   1.435e-4
1.106,   1.450e-4
1.109,   1.472e-4
1.112,   1.475e-4
1.115,   1.505e-4
1.118,   1.477e-4
1.121,   1.514e-4
1.124,   1.475e-4
1.127,   1.500e-4
1.130,   1.473e-4
1.133,   1.515e-4
1.136,   1.494e-4
1.139,   1.533e-4
1.142,   1.548e-4
1.145,   1.549e-4
1.148,   1.588e-4
1.151,   1.555e-4
1.154,   1.589e-4
1.157,   1.531e-4
1.160,   1.573e-4
1.163,   1.536e-4
1.166,   1.587e-4
1.169,   1.600e-4
1.172,   1.602e-4
1.175,   1.661e-4
1.178,   1.608e-4
1.181,   1.685e-4
1.184,   1.614e-4
1.187,   1.656e-4
1.190,   1.632e-4
1.193,   1.662e-4
1.196,   1.649e-4
1.199,   1.664e-4
1.202,   1.696e-4
1.205,   1.689e-4
1.208,   1.754e-4
1.211,   1.708e-4
1.214,   1.753e-4
1.217,   1.706e-4
1.220,   1.739e-4
1.223,   1.698e-4
1.226,   1.750e-4
1.229,   1.757e-4
1.232,   1.762e-4
1.235,   1.815e-4
1.238,   1.786e-4
1.241,   1.835e-4
1.244,   1.767e-4
1.247,   1.828e-4
1.250,   1.775e-4
1.253,   1.823e-4
1.256,   1.802e-4
1.259,   1.845e-4
1.262,   1.871e-4
1.265,   1.852e-4
1.268,   1.923e-4
1.271,   1.864e-4
1.274,   1.927e-4
1.277,   1.850e-4
1.280,   1.921e-4
1.283,   1.877e-4
1.286,   1.941e-4
1.289,   1.917e-4
1.292,   1.953e-4
1.295,   1.988e-4
1.298,   1.974e-4
1.301,   2.024e-4
1.304,   1.962e-4
1.307,   2.017e-4
1.310,   1.995e-4
1.313,   2.060e-4
1.316,   2.007e-4
1.319,   2.056e-4
1.322,   2.059e-4
1.325,   2.122e-4
1.328,   2.157e-4
1.331,   2.123e-4
1.334,   2.188e-4
1.337,   2.156e-4
1.340,   2.201e-4
1.343,   2.161e-4
1.346,   2.237e-4
1.349,   2.212e-4
1.352,   2.285e-4
1.355,   2.330e-4
1.358,   2.334e-4
1.361,   2.425e-4
1.364,   2.385e-4
1.367,   2.457e-4
1.370,   2.445e-4
1.373,   2.513e-4
1.376,   2.489e-4
1.379,   2.587e-4
1.382,   2.621e-4
1.385,   2.684e-4
1.388,   2.798e-4
1.391,   2.803e-4
1.394,   2.943e-4
1.397,   2.928e-4
1.400,   3.096e-4
1.403,   3.130e-4
1.406,   3.332e-4
1.409,   3.447e-4
1.412,   3.657e-4
1.415,   3.901e-4
1.418,   4.135e-4
1.421,   4.476e-4
1.424,   4.776e-4
1.427,   5.332e-4
1.430,   5.726e-4
1.433,   6.485e-4
1.436,   7.214e-4
1.439,   8.181e-4
1.442,   9.459e-4
1.445,   1.068e-3
1.448,   1.256e-3
1.451,   1.414e-3
1.454,   1.653e-3
1.457,   1.847e-3
1.460,   2.180e-3
1.463,   2.463e-3
1.466,   2.872e-3
1.469,   3.361e-3
1.472,   3.783e-3
1.475,   4.530e-3
1.478,   4.977e-3
1.481,   5.752e-3
1.484,   6.256e-3
1.487,   7.159e-3
1.490,   7.748e-3
1.493,   8.751e-3
1.496,   9.526e-3
1.499,   1.001e-2
1.502,   1.007e-2
1.505,   1.007e-2
1.508,   1.007e-2
1.511,   1.007e-2
1.514,   1.007e-2
1.517,   1.007e-2
1.520,   1.007e-2
1.523,   1.007e-2
1.526,   1.007e-2
1.528,   1.007e-2