File: Experimental Records, Raw Data, and Supplementary Notes and Figures/batch5/final400/B5_BEST_400_#1_High_Quality(#22)-206mV.txt
May 30, 2023   20:23:51
Linear Sweep Voltammetry
File: d:\current work\al_oer\electrochemical test data\batch 5\400\B5_BEST_400_#1_High_Quality(#22)-206mV.txt
Data Source:  Experiment
Instrument Model:  CHI660E
Header:
Note:

Init E (V) = 0.901

Final E (V) = 1.511

Scan Rate (V/s) = 0.010
Sample Interval (V) = 0.001
Quiet Time (sec) = 2
Sensitivity (A/V) = 0.001

Results:

Channel 1:

Potential/V, Current/A
0.901,   -7.775e-5
0.904,   5.937e-5
0.907,   8.586e-5
0.910,   1.005e-4
0.913,   1.109e-4
0.916,   1.184e-4
0.919,   1.266e-4
0.922,   1.324e-4
0.925,   1.357e-4
0.928,   1.397e-4
0.931,   1.421e-4
0.934,   1.452e-4
0.937,   1.479e-4
0.940,   1.505e-4
0.943,   1.522e-4
0.946,   1.547e-4
0.949,   1.565e-4
0.952,   1.584e-4
0.955,   1.607e-4
0.958,   1.612e-4
0.961,   1.623e-4
0.964,   1.636e-4
0.967,   1.660e-4
0.970,   1.663e-4
0.973,   1.662e-4
0.976,   1.684e-4
0.979,   1.699e-4
0.982,   -2.890e-3
0.985,   -1.331e-3
0.988,   -3.900e-4
0.991,   6.650e-4
0.994,   5.104e-4
0.997,   3.981e-4
1.000,   4.304e-4
1.003,   4.557e-4
1.006,   3.492e-4
1.009,   2.076e-4
1.012,   1.812e-4
1.015,   2.275e-4
1.018,   2.000e-4
1.021,   2.083e-4
1.024,   2.589e-4
1.027,   1.673e-4
1.030,   2.521e-4
1.033,   2.099e-4
1.036,   1.418e-4
1.039,   2.064e-4
1.042,   2.028e-4
1.045,   1.917e-4
1.048,   1.726e-4
1.051,   1.654e-4
1.054,   2.629e-4
1.057,   1.472e-4
1.060,   1.835e-4
1.063,   1.889e-4
1.066,   2.914e-4
1.069,   2.556e-4
1.072,   2.486e-4
1.075,   2.054e-4
1.078,   2.200e-4
1.081,   1.522e-4
1.084,   2.123e-4
1.087,   1.901e-4
1.090,   1.936e-4
1.093,   2.009e-4
1.096,   2.215e-4
1.099,   2.001e-4
1.102,   1.866e-4
1.105,   2.466e-4
1.108,   2.120e-4
1.111,   1.703e-4
1.114,   2.040e-4
1.117,   2.348e-4
1.120,   2.988e-4
1.123,   2.163e-4
1.126,   2.391e-4
1.129,   2.336e-4
1.132,   2.251e-4
1.135,   2.192e-4
1.138,   2.202e-4
1.141,   2.165e-4
1.144,   2.073e-4
1.147,   2.157e-4
1.150,   1.853e-4
1.153,   3.175e-4
1.156,   2.185e-4
1.159,   2.214e-4
1.162,   1.756e-4
1.165,   1.510e-4
1.168,   2.944e-4
1.171,   2.666e-4
1.174,   1.422e-4
1.177,   2.036e-4
1.180,   2.238e-4
1.183,   2.324e-4
1.186,   2.207e-4
1.189,   2.705e-4
1.192,   2.682e-4
1.195,   1.857e-4
1.198,   2.465e-4
1.201,   2.225e-4
1.204,   2.480e-4
1.207,   2.248e-4
1.210,   2.136e-4
1.213,   2.583e-4
1.216,   2.114e-4
1.219,   2.395e-4
1.222,   2.056e-4
1.225,   2.146e-4
1.228,   2.327e-4
1.231,   2.123e-4
1.234,   2.276e-4
1.237,   2.302e-4
1.240,   2.309e-4
1.243,   2.344e-4
1.246,   2.335e-4
1.249,   2.401e-4
1.252,   2.553e-4
1.255,   2.392e-4
1.258,   2.378e-4
1.261,   2.354e-4
1.264,   2.352e-4
1.267,   2.362e-4
1.270,   2.352e-4
1.273,   2.230e-4
1.276,   2.336e-4
1.279,   2.495e-4
1.282,   2.359e-4
1.285,   2.480e-4
1.288,   2.524e-4
1.291,   2.547e-4
1.294,   7.415e-4
1.297,   3.272e-4
1.300,   2.625e-4
1.303,   2.534e-4
1.306,   2.522e-4
1.309,   2.516e-4
1.312,   2.521e-4
1.315,   2.510e-4
1.318,   2.516e-4
1.321,   2.545e-4
1.324,   2.565e-4
1.327,   2.587e-4
1.330,   2.618e-4
1.333,   2.634e-4
1.336,   2.650e-4
1.339,   2.701e-4
1.342,   2.715e-4
1.345,   2.753e-4
1.348,   2.794e-4
1.351,   2.838e-4
1.354,   2.890e-4
1.357,   2.933e-4
1.360,   2.989e-4
1.363,   3.050e-4
1.366,   3.120e-4
1.369,   3.206e-4
1.372,   3.289e-4
1.375,   3.393e-4
1.378,   3.511e-4
1.381,   3.662e-4
1.384,   3.827e-4
1.387,   3.991e-4
1.390,   4.219e-4
1.393,   4.476e-4
1.396,   4.788e-4
1.399,   5.106e-4
1.402,   5.542e-4
1.405,   6.037e-4
1.408,   6.624e-4
1.411,   7.317e-4
1.414,   8.117e-4
1.417,   9.058e-4
1.420,   1.015e-3
1.423,   1.136e-3
1.426,   1.280e-3
1.429,   1.435e-3
1.432,   1.616e-3
1.435,   1.812e-3
1.438,   2.021e-3
1.441,   2.252e-3
1.444,   2.498e-3
1.447,   2.754e-3
1.450,   3.025e-3
1.453,   3.318e-3
1.456,   3.614e-3
1.459,   3.901e-3
1.462,   4.220e-3
1.465,   4.558e-3
1.468,   4.891e-3
1.471,   5.256e-3
1.474,   5.622e-3
1.477,   5.981e-3
1.480,   6.355e-3
1.483,   6.719e-3
1.486,   7.105e-3
1.489,   7.469e-3
1.492,   7.848e-3
1.495,   8.257e-3
1.498,   8.650e-3
1.501,   9.055e-3
1.504,   9.473e-3
1.507,   9.853e-3
1.510,   1.007e-2
1.511,   1.007e-2