File: Experimental Records, Raw Data, and Supplementary Notes and Figures/batch5/final400/B5_BEST_400_#1_High_Quality(#31)-255mV.txt
May 31, 2023   13:54:26
Linear Sweep Voltammetry
File: d:\current work\al_oer\electrochemical test data\batch 5\400\B5_BEST_400_#1_High_Quality(#31)-255mV.txt
Data Source:  Experiment
Instrument Model:  CHI660E
Header:
Note:

Init E (V) = 0.900

Final E (V) = 1.699

Scan Rate (V/s) = 0.010
Sample Interval (V) = 0.001
Quiet Time (sec) = 2
Sensitivity (A/V) = 0.001
Comp R (ohm) = 6.0

Results:

Channel 1:

Potential/V, Current/A
0.900,   5.754e-5
0.903,   6.574e-5
0.906,   6.512e-5
0.909,   6.435e-5
0.912,   6.415e-5
0.915,   6.328e-5
0.918,   6.234e-5
0.921,   6.142e-5
0.924,   6.124e-5
0.927,   6.063e-5
0.930,   5.953e-5
0.933,   5.871e-5
0.936,   5.884e-5
0.939,   5.795e-5
0.942,   5.724e-5
0.945,   5.656e-5
0.948,   5.647e-5
0.951,   5.594e-5
0.954,   5.533e-5
0.957,   5.456e-5
0.960,   5.461e-5
0.963,   5.431e-5
0.966,   5.382e-5
0.969,   5.335e-5
0.972,   5.327e-5
0.975,   5.304e-5
0.978,   5.264e-5
0.981,   5.210e-5
0.984,   5.218e-5
0.987,   5.188e-5
0.990,   5.132e-5
0.993,   5.109e-5
0.996,   5.105e-5
0.999,   5.111e-5
1.002,   5.090e-5
1.005,   5.040e-5
1.008,   4.995e-5
1.011,   5.030e-5
1.014,   5.014e-5
1.017,   4.981e-5
1.020,   4.980e-5
1.023,   4.947e-5
1.026,   4.932e-5
1.029,   4.916e-5
1.032,   4.904e-5
1.035,   4.922e-5
1.038,   4.912e-5
1.041,   4.897e-5
1.044,   4.879e-5
1.047,   4.945e-5
1.050,   4.902e-5
1.053,   4.888e-5
1.056,   4.876e-5
1.059,   4.935e-5
1.062,   4.902e-5
1.065,   4.908e-5
1.068,   4.893e-5
1.071,   4.919e-5
1.074,   4.934e-5
1.077,   4.913e-5
1.080,   4.901e-5
1.083,   4.987e-5
1.086,   4.970e-5
1.089,   4.957e-5
1.092,   4.953e-5
1.095,   5.039e-5
1.098,   5.017e-5
1.101,   5.007e-5
1.104,   4.995e-5
1.107,   5.076e-5
1.110,   5.078e-5
1.113,   5.087e-5
1.116,   5.066e-5
1.119,   5.158e-5
1.122,   5.159e-5
1.125,   5.163e-5
1.128,   5.143e-5
1.131,   5.223e-5
1.134,   5.259e-5
1.137,   5.262e-5
1.140,   5.261e-5
1.143,   5.338e-5
1.146,   5.379e-5
1.149,   5.383e-5
1.152,   5.404e-5
1.155,   5.455e-5
1.158,   5.493e-5
1.161,   5.511e-5
1.164,   5.525e-5
1.167,   5.589e-5
1.170,   5.631e-5
1.173,   5.671e-5
1.176,   5.643e-5
1.179,   5.704e-5
1.182,   5.763e-5
1.185,   5.781e-5
1.188,   5.806e-5
1.191,   5.842e-5
1.194,   5.933e-5
1.197,   5.943e-5
1.200,   5.979e-5
1.203,   6.029e-5
1.206,   6.111e-5
1.209,   6.151e-5
1.212,   6.144e-5
1.215,   6.208e-5
1.218,   6.312e-5
1.221,   6.322e-5
1.224,   6.359e-5
1.227,   6.397e-5
1.230,   6.541e-5
1.233,   6.550e-5
1.236,   6.601e-5
1.239,   6.626e-5
1.242,   6.794e-5
1.245,   6.781e-5
1.248,   6.860e-5
1.251,   6.894e-5
1.254,   7.030e-5
1.257,   7.103e-5
1.260,   7.159e-5
1.263,   7.205e-5
1.266,   7.369e-5
1.269,   7.443e-5
1.272,   7.476e-5
1.275,   7.550e-5
1.278,   7.705e-5
1.281,   7.822e-5
1.284,   7.902e-5
1.287,   7.902e-5
1.290,   8.134e-5
1.293,   8.233e-5
1.296,   8.308e-5
1.299,   8.355e-5
1.302,   8.604e-5
1.305,   8.735e-5
1.308,   8.780e-5
1.311,   8.851e-5
1.314,   9.088e-5
1.317,   9.215e-5
1.320,   9.278e-5
1.323,   9.372e-5
1.326,   9.681e-5
1.329,   9.823e-5
1.332,   9.975e-5
1.335,   1.005e-4
1.338,   1.026e-4
1.341,   1.049e-4
1.344,   1.063e-4
1.347,   1.074e-4
1.350,   1.107e-4
1.353,   1.132e-4
1.356,   1.148e-4
1.359,   1.166e-4
1.362,   1.192e-4
1.365,   1.226e-4
1.368,   1.251e-4
1.371,   1.276e-4
1.374,   1.311e-4
1.377,   1.352e-4
1.380,   1.383e-4
1.383,   1.420e-4
1.386,   1.468e-4
1.389,   1.523e-4
1.392,   1.563e-4
1.395,   1.620e-4
1.398,   1.668e-4
1.401,   1.763e-4
1.404,   1.834e-4
1.407,   1.921e-4
1.410,   2.011e-4
1.413,   2.141e-4
1.416,   2.262e-4
1.419,   2.416e-4
1.422,   2.561e-4
1.425,   2.807e-4
1.428,   3.035e-4
1.431,   3.313e-4
1.434,   3.589e-4
1.437,   4.013e-4
1.440,   4.428e-4
1.443,   4.930e-4
1.446,   5.461e-4
1.449,   6.184e-4
1.452,   6.915e-4
1.455,   7.714e-4
1.458,   8.533e-4
1.461,   9.589e-4
1.464,   1.064e-3
1.467,   1.168e-3
1.470,   1.285e-3
1.473,   1.415e-3
1.476,   1.537e-3
1.479,   1.658e-3
1.482,   1.774e-3
1.485,   1.904e-3
1.488,   2.040e-3
1.491,   2.175e-3
1.494,   2.283e-3
1.497,   2.424e-3
1.500,   2.555e-3
1.503,   2.643e-3
1.506,   2.763e-3
1.509,   2.857e-3
1.512,   3.007e-3
1.515,   3.127e-3
1.518,   3.262e-3
1.521,   3.368e-3
1.524,   3.516e-3
1.527,   3.631e-3
1.530,   3.725e-3
1.533,   3.841e-3
1.536,   3.977e-3
1.539,   4.097e-3
1.542,   4.183e-3
1.545,   4.273e-3
1.548,   4.440e-3
1.551,   4.552e-3
1.554,   4.627e-3
1.557,   4.702e-3
1.560,   4.816e-3
1.563,   4.897e-3
1.566,   4.920e-3
1.569,   4.981e-3
1.572,   5.082e-3
1.575,   5.167e-3
1.578,   5.225e-3
1.581,   5.227e-3
1.584,   5.324e-3
1.587,   5.395e-3
1.590,   5.475e-3
1.593,   5.427e-3
1.596,   5.514e-3
1.599,   5.552e-3
1.602,   5.622e-3
1.605,   5.619e-3
1.608,   5.666e-3
1.611,   5.756e-3
1.614,   5.730e-3
1.617,   5.771e-3
1.620,   5.807e-3
1.623,   5.922e-3
1.626,   5.910e-3
1.629,   5.860e-3
1.632,   5.957e-3
1.635,   6.043e-3
1.638,   5.988e-3
1.641,   5.987e-3
1.644,   6.010e-3
1.647,   6.064e-3
1.650,   6.084e-3
1.653,   6.021e-3
1.656,   6.050e-3
1.659,   6.113e-3
1.662,   6.129e-3
1.665,   6.073e-3
1.668,   6.142e-3
1.671,   6.096e-3
1.674,   6.084e-3
1.677,   6.092e-3
1.680,   6.068e-3
1.683,   6.070e-3
1.686,   6.000e-3
1.689,   5.949e-3
1.692,   5.985e-3
1.695,   5.990e-3
1.698,   5.943e-3
1.699,   5.925e-3