File: Experimental Records, Raw Data, and Supplementary Notes and Figures/batch5/final400/B5_BEST_400_#1_Full(#9)-200mV.txt
May 31, 2023   15:37:17
Linear Sweep Voltammetry
File: d:\current work\al_oer\electrochemical test data\batch 5\400\B5_BEST_400_#1_Full(#9)-200mV.txt
Data Source:  Experiment
Instrument Model:  CHI660E
Header:
Note:

Init E (V) = 0.900

Final E (V) = 1.516

Scan Rate (V/s) = 0.010
Sample Interval (V) = 0.001
Quiet Time (sec) = 2
Sensitivity (A/V) = 0.001
Comp R (ohm) = 5.9

Results:

Channel 1:
Ep = 1.476V
ip = 9.422e-3A
Ah = 1.093e-2C

Potential/V, Current/A
0.900,   4.079e-4
0.903,   4.879e-4
0.906,   4.806e-4
0.909,   4.748e-4
0.912,   4.666e-4
0.915,   4.611e-4
0.918,   4.510e-4
0.921,   4.476e-4
0.924,   4.409e-4
0.927,   4.371e-4
0.930,   4.365e-4
0.933,   4.309e-4
0.936,   4.267e-4
0.939,   4.216e-4
0.942,   4.185e-4
0.945,   4.167e-4
0.948,   4.160e-4
0.951,   4.146e-4
0.954,   4.088e-4
0.957,   4.072e-4
0.960,   4.035e-4
0.963,   4.056e-4
0.966,   4.096e-4
0.969,   4.075e-4
0.972,   4.161e-4
0.975,   4.107e-4
0.978,   4.084e-4
0.981,   4.035e-4
0.984,   4.002e-4
0.987,   3.995e-4
0.990,   3.972e-4
0.993,   3.976e-4
0.996,   3.934e-4
0.999,   3.912e-4
1.002,   3.888e-4
1.005,   3.843e-4
1.008,   3.840e-4
1.011,   3.828e-4
1.014,   3.806e-4
1.017,   3.780e-4
1.020,   3.799e-4
1.023,   3.747e-4
1.026,   3.752e-4
1.029,   3.753e-4
1.032,   3.731e-4
1.035,   3.696e-4
1.038,   3.684e-4
1.041,   3.727e-4
1.044,   3.683e-4
1.047,   3.661e-4
1.050,   3.662e-4
1.053,   3.646e-4
1.056,   3.648e-4
1.059,   3.666e-4
1.062,   3.656e-4
1.065,   3.656e-4
1.068,   3.637e-4
1.071,   3.697e-4
1.074,   3.685e-4
1.077,   3.731e-4
1.080,   3.716e-4
1.083,   3.727e-4
1.086,   3.792e-4
1.089,   3.837e-4
1.092,   3.860e-4
1.095,   3.891e-4
1.098,   3.890e-4
1.101,   3.905e-4
1.104,   3.952e-4
1.107,   4.011e-4
1.110,   4.095e-4
1.113,   4.148e-4
1.116,   4.174e-4
1.119,   4.255e-4
1.122,   4.348e-4
1.125,   4.392e-4
1.128,   4.441e-4
1.131,   4.512e-4
1.134,   4.561e-4
1.137,   4.611e-4
1.140,   4.580e-4
1.143,   4.589e-4
1.146,   4.597e-4
1.149,   4.615e-4
1.152,   4.627e-4
1.155,   4.572e-4
1.158,   4.626e-4
1.161,   4.608e-4
1.164,   4.631e-4
1.167,   4.583e-4
1.170,   4.600e-4
1.173,   4.516e-4
1.176,   4.530e-4
1.179,   4.522e-4
1.182,   4.530e-4
1.185,   4.531e-4
1.188,   4.524e-4
1.191,   4.590e-4
1.194,   4.529e-4
1.197,   4.533e-4
1.200,   4.549e-4
1.203,   4.609e-4
1.206,   4.580e-4
1.209,   4.494e-4
1.212,   4.513e-4
1.215,   4.536e-4
1.218,   4.512e-4
1.221,   4.459e-4
1.224,   4.563e-4
1.227,   4.591e-4
1.230,   4.657e-4
1.233,   4.679e-4
1.236,   4.785e-4
1.239,   4.686e-4
1.242,   4.729e-4
1.245,   4.701e-4
1.248,   4.847e-4
1.251,   4.809e-4
1.254,   4.834e-4
1.257,   4.924e-4
1.260,   4.944e-4
1.263,   5.040e-4
1.266,   5.061e-4
1.269,   5.142e-4
1.272,   5.163e-4
1.275,   5.236e-4
1.278,   5.349e-4
1.281,   5.499e-4
1.284,   5.493e-4
1.287,   5.671e-4
1.290,   5.745e-4
1.293,   5.745e-4
1.296,   5.748e-4
1.299,   5.864e-4
1.302,   5.944e-4
1.305,   6.046e-4
1.308,   6.066e-4
1.311,   6.067e-4
1.314,   6.215e-4
1.317,   6.260e-4
1.320,   6.273e-4
1.323,   6.394e-4
1.326,   6.366e-4
1.329,   6.375e-4
1.332,   6.499e-4
1.335,   6.413e-4
1.338,   6.487e-4
1.341,   6.523e-4
1.344,   6.583e-4
1.347,   6.580e-4
1.350,   6.644e-4
1.353,   6.707e-4
1.356,   6.654e-4
1.359,   6.722e-4
1.362,   6.805e-4
1.365,   6.756e-4
1.368,   6.859e-4
1.371,   6.934e-4
1.374,   6.933e-4
1.377,   7.018e-4
1.380,   7.046e-4
1.383,   7.236e-4
1.386,   7.291e-4
1.389,   7.524e-4
1.392,   7.715e-4
1.395,   8.004e-4
1.398,   8.215e-4
1.401,   8.492e-4
1.404,   8.935e-4
1.407,   9.498e-4
1.410,   9.990e-4
1.413,   1.064e-3
1.416,   1.155e-3
1.419,   1.255e-3
1.422,   1.368e-3
1.425,   1.532e-3
1.428,   1.713e-3
1.431,   1.938e-3
1.434,   2.210e-3
1.437,   2.500e-3
1.440,   2.893e-3
1.443,   3.339e-3
1.446,   3.837e-3
1.449,   4.484e-3
1.452,   5.198e-3
1.455,   6.034e-3
1.458,   6.929e-3
1.461,   7.673e-3
1.464,   8.444e-3
1.467,   9.091e-3
1.470,   9.643e-3
1.473,   9.983e-3
1.476,   1.007e-2
1.479,   1.007e-2
1.482,   1.007e-2
1.485,   1.007e-2
1.488,   1.007e-2
1.491,   1.007e-2
1.494,   6.938e-3
1.497,   4.112e-3
1.500,   4.070e-3
1.503,   5.089e-3
1.506,   1.004e-2
1.509,   1.007e-2
1.512,   1.007e-2
1.515,   1.007e-2
1.516,   6.331e-3