File: Experimental Records, Raw Data, and Supplementary Notes and Figures/batch5/final400/B5_BEST_400_#1_High_Quality(#23)-154mV.txt
May 31, 2023   14:25:50
Linear Sweep Voltammetry
File: d:\current work\al_oer\electrochemical test data\batch 5\400\B5_BEST_400_#1_High_Quality(#23)-154mV.txt
Data Source:  Experiment
Instrument Model:  CHI660E
Header:
Note:

Init E (V) = 0.890

Final E (V) = 1.459

Scan Rate (V/s) = 0.010
Sample Interval (V) = 0.001
Quiet Time (sec) = 2
Sensitivity (A/V) = 0.001
Comp R (ohm) = 5.2

Results:

Channel 1:

Potential/V, Current/A
0.890,   5.893e-4
0.892,   7.997e-4
0.894,   7.663e-4
0.896,   7.893e-4
0.898,   7.645e-4
0.900,   7.688e-4
0.902,   7.523e-4
0.904,   7.230e-4
0.906,   7.621e-4
0.908,   7.178e-4
0.910,   7.242e-4
0.912,   7.229e-4
0.914,   6.982e-4
0.916,   7.114e-4
0.918,   6.932e-4
0.920,   6.934e-4
0.922,   6.919e-4
0.924,   6.734e-4
0.926,   6.907e-4
0.928,   6.707e-4
0.930,   6.686e-4
0.932,   6.700e-4
0.934,   6.463e-4
0.936,   6.730e-4
0.938,   6.664e-4
0.940,   6.455e-4
0.942,   6.480e-4
0.944,   6.392e-4
0.946,   6.525e-4
0.948,   6.401e-4
0.950,   6.361e-4
0.952,   6.362e-4
0.954,   6.200e-4
0.956,   6.494e-4
0.958,   6.304e-4
0.960,   6.166e-4
0.962,   6.365e-4
0.964,   6.104e-4
0.966,   6.383e-4
0.968,   6.227e-4
0.970,   6.102e-4
0.972,   6.231e-4
0.974,   6.126e-4
0.976,   6.273e-4
0.978,   6.112e-4
0.980,   5.978e-4
0.982,   6.195e-4
0.984,   6.076e-4
0.986,   6.123e-4
0.988,   6.114e-4
0.990,   5.915e-4
0.992,   6.163e-4
0.994,   6.012e-4
0.996,   6.039e-4
0.998,   6.061e-4
1.000,   5.914e-4
1.002,   6.197e-4
1.004,   5.984e-4
1.006,   6.035e-4
1.008,   6.049e-4
1.010,   5.875e-4
1.012,   6.114e-4
1.014,   5.997e-4
1.016,   5.985e-4
1.018,   6.041e-4
1.020,   5.884e-4
1.022,   6.103e-4
1.024,   5.920e-4
1.026,   5.915e-4
1.028,   6.027e-4
1.030,   5.811e-4
1.032,   6.116e-4
1.034,   5.978e-4
1.036,   5.968e-4
1.038,   6.053e-4
1.040,   5.885e-4
1.042,   6.124e-4
1.044,   5.934e-4
1.046,   6.033e-4
1.048,   6.051e-4
1.050,   5.823e-4
1.052,   6.198e-4
1.054,   5.957e-4
1.056,   5.939e-4
1.058,   6.100e-4
1.060,   5.929e-4
1.062,   6.139e-4
1.064,   6.066e-4
1.066,   6.037e-4
1.068,   6.151e-4
1.070,   5.995e-4
1.072,   6.218e-4
1.074,   6.123e-4
1.076,   6.111e-4
1.078,   6.162e-4
1.080,   6.084e-4
1.082,   6.271e-4
1.084,   6.211e-4
1.086,   6.103e-4
1.088,   6.260e-4
1.090,   6.243e-4
1.092,   6.341e-4
1.094,   6.335e-4
1.096,   6.149e-4
1.098,   6.485e-4
1.100,   6.264e-4
1.102,   6.424e-4
1.104,   6.307e-4
1.106,   6.273e-4
1.108,   6.552e-4
1.110,   6.373e-4
1.112,   6.547e-4
1.114,   6.435e-4
1.116,   6.411e-4
1.118,   6.616e-4
1.120,   6.567e-4
1.122,   6.608e-4
1.124,   6.565e-4
1.126,   6.529e-4
1.128,   6.838e-4
1.130,   6.685e-4
1.132,   6.716e-4
1.134,   6.734e-4
1.136,   6.665e-4
1.138,   6.924e-4
1.140,   6.853e-4
1.142,   6.812e-4
1.144,   6.924e-4
1.146,   6.863e-4
1.148,   6.988e-4
1.150,   7.034e-4
1.152,   6.967e-4
1.154,   7.091e-4
1.156,   7.024e-4
1.158,   7.232e-4
1.160,   7.200e-4
1.162,   7.182e-4
1.164,   7.347e-4
1.166,   7.099e-4
1.168,   7.435e-4
1.170,   7.309e-4
1.172,   7.381e-4
1.174,   7.410e-4
1.176,   7.281e-4
1.178,   7.600e-4
1.180,   7.521e-4
1.182,   7.465e-4
1.184,   7.634e-4
1.186,   7.577e-4
1.188,   7.661e-4
1.190,   7.702e-4
1.192,   7.672e-4
1.194,   7.841e-4
1.196,   7.812e-4
1.198,   7.876e-4
1.200,   8.010e-4
1.202,   7.792e-4
1.204,   8.133e-4
1.206,   7.993e-4
1.208,   8.231e-4
1.210,   8.152e-4
1.212,   7.964e-4
1.214,   8.200e-4
1.216,   8.336e-4
1.218,   8.254e-4
1.220,   8.346e-4
1.222,   8.268e-4
1.224,   8.416e-4
1.226,   8.564e-4
1.228,   8.560e-4
1.230,   8.477e-4
1.232,   8.483e-4
1.234,   8.808e-4
1.236,   8.821e-4
1.238,   8.714e-4
1.240,   8.783e-4
1.242,   8.733e-4
1.244,   9.093e-4
1.246,   8.977e-4
1.248,   9.049e-4
1.250,   9.023e-4
1.252,   9.077e-4
1.254,   9.330e-4
1.256,   9.221e-4
1.258,   9.280e-4
1.260,   9.387e-4
1.262,   9.293e-4
1.264,   9.667e-4
1.266,   9.474e-4
1.268,   9.530e-4
1.270,   9.633e-4
1.272,   9.490e-4
1.274,   1.003e-3
1.276,   9.778e-4
1.278,   9.792e-4
1.280,   1.003e-3
1.282,   9.887e-4
1.284,   1.023e-3
1.286,   1.014e-3
1.288,   1.019e-3
1.290,   1.032e-3
1.292,   1.019e-3
1.294,   1.059e-3
1.296,   1.050e-3
1.298,   1.043e-3
1.300,   1.079e-3
1.302,   1.064e-3
1.304,   1.102e-3
1.306,   1.076e-3
1.308,   1.087e-3
1.310,   1.134e-3
1.312,   1.099e-3
1.314,   1.133e-3
1.316,   1.134e-3
1.318,   1.133e-3
1.320,   1.170e-3
1.322,   1.156e-3
1.324,   1.182e-3
1.326,   1.180e-3
1.328,   1.172e-3
1.330,   1.228e-3
1.332,   1.220e-3
1.334,   1.239e-3
1.336,   1.243e-3
1.338,   1.246e-3
1.340,   1.289e-3
1.342,   1.265e-3
1.344,   1.310e-3
1.346,   1.323e-3
1.348,   1.329e-3
1.350,   1.372e-3
1.352,   1.358e-3
1.354,   1.401e-3
1.356,   1.426e-3
1.358,   1.413e-3
1.360,   1.483e-3
1.362,   1.501e-3
1.364,   1.489e-3
1.366,   1.550e-3
1.368,   1.550e-3
1.370,   1.628e-3
1.372,   1.653e-3
1.374,   1.670e-3
1.376,   1.744e-3
1.378,   1.752e-3
1.380,   1.845e-3
1.382,   1.886e-3
1.384,   1.908e-3
1.386,   2.026e-3
1.388,   2.032e-3
1.390,   2.155e-3
1.392,   2.235e-3
1.394,   2.277e-3
1.396,   2.453e-3
1.398,   2.463e-3
1.400,   2.646e-3
1.402,   2.808e-3
1.404,   2.833e-3
1.406,   3.130e-3
1.408,   3.240e-3
1.410,   3.483e-3
1.412,   3.701e-3
1.414,   3.846e-3
1.416,   4.259e-3
1.418,   4.444e-3
1.420,   4.866e-3
1.422,   5.247e-3
1.424,   5.487e-3
1.426,   6.144e-3
1.428,   6.469e-3
1.430,   7.021e-3
1.432,   7.567e-3
1.434,   7.873e-3
1.436,   8.897e-3
1.438,   9.060e-3
1.440,   9.524e-3
1.442,   9.795e-3
1.444,   9.901e-3
1.446,   1.007e-2
1.448,   1.007e-2
1.450,   1.007e-2
1.452,   1.007e-2
1.454,   1.007e-2
1.456,   1.007e-2
1.458,   1.007e-2
1.459,   1.007e-2