File: Experimental Records, Raw Data, and Supplementary Notes and Figures/batch5/final400/B5_BEST_400_#1_Full(#8)-212mV.txt
May 31, 2023   14:45:34
Linear Sweep Voltammetry
File: d:\current work\al_oer\electrochemical test data\batch 5\400\B5_BEST_400_#1_Full(#8)-212mV.txt
Data Source:  Experiment
Instrument Model:  CHI660E
Header:
Note:

Init E (V) = 0.899

Final E (V) = 1.502

Scan Rate (V/s) = 0.010
Sample Interval (V) = 0.001
Quiet Time (sec) = 2
Sensitivity (A/V) = 0.001
Comp R (ohm) = 6.2

Results:

Channel 1:

Potential/V, Current/A
0.899,   3.171e-4
0.902,   3.568e-4
0.905,   3.560e-4
0.908,   3.490e-4
0.911,   3.432e-4
0.914,   3.369e-4
0.917,   3.327e-4
0.920,   3.244e-4
0.923,   3.189e-4
0.926,   3.155e-4
0.929,   3.104e-4
0.932,   3.052e-4
0.935,   3.000e-4
0.938,   2.971e-4
0.941,   2.934e-4
0.944,   2.893e-4
0.947,   2.872e-4
0.950,   2.840e-4
0.953,   2.818e-4
0.956,   2.786e-4
0.959,   2.743e-4
0.962,   2.734e-4
0.965,   2.735e-4
0.968,   2.699e-4
0.971,   2.682e-4
0.974,   2.680e-4
0.977,   2.661e-4
0.980,   2.633e-4
0.983,   2.604e-4
0.986,   2.610e-4
0.989,   2.612e-4
0.992,   2.592e-4
0.995,   2.584e-4
0.998,   2.574e-4
1.001,   2.588e-4
1.004,   2.551e-4
1.007,   2.544e-4
1.010,   2.546e-4
1.013,   2.556e-4
1.016,   2.543e-4
1.019,   2.555e-4
1.022,   2.530e-4
1.025,   2.539e-4
1.028,   2.547e-4
1.031,   2.529e-4
1.034,   2.546e-4
1.037,   2.540e-4
1.040,   2.537e-4
1.043,   2.546e-4
1.046,   2.530e-4
1.049,   2.551e-4
1.052,   2.553e-4
1.055,   2.541e-4
1.058,   2.553e-4
1.061,   2.574e-4
1.064,   2.569e-4
1.067,   2.581e-4
1.070,   2.568e-4
1.073,   2.585e-4
1.076,   2.605e-4
1.079,   2.615e-4
1.082,   2.609e-4
1.085,   2.612e-4
1.088,   2.640e-4
1.091,   2.649e-4
1.094,   2.629e-4
1.097,   2.668e-4
1.100,   2.685e-4
1.103,   2.675e-4
1.106,   2.684e-4
1.109,   2.698e-4
1.112,   2.703e-4
1.115,   2.735e-4
1.118,   2.725e-4
1.121,   2.751e-4
1.124,   2.780e-4
1.127,   2.775e-4
1.130,   2.802e-4
1.133,   2.794e-4
1.136,   2.827e-4
1.139,   2.844e-4
1.142,   2.818e-4
1.145,   2.872e-4
1.148,   2.881e-4
1.151,   2.895e-4
1.154,   2.919e-4
1.157,   2.904e-4
1.160,   2.946e-4
1.163,   2.971e-4
1.166,   2.957e-4
1.169,   2.981e-4
1.172,   2.996e-4
1.175,   3.001e-4
1.178,   3.023e-4
1.181,   3.004e-4
1.184,   3.034e-4
1.187,   3.104e-4
1.190,   3.081e-4
1.193,   3.077e-4
1.196,   3.126e-4
1.199,   3.109e-4
1.202,   3.184e-4
1.205,   3.118e-4
1.208,   3.165e-4
1.211,   3.213e-4
1.214,   3.165e-4
1.217,   3.215e-4
1.220,   3.241e-4
1.223,   3.243e-4
1.226,   3.289e-4
1.229,   3.232e-4
1.232,   3.293e-4
1.235,   3.350e-4
1.238,   3.310e-4
1.241,   3.315e-4
1.244,   3.346e-4
1.247,   3.335e-4
1.250,   3.416e-4
1.253,   3.358e-4
1.256,   3.400e-4
1.259,   3.438e-4
1.262,   3.451e-4
1.265,   3.452e-4
1.268,   3.461e-4
1.271,   3.460e-4
1.274,   3.507e-4
1.277,   3.499e-4
1.280,   3.514e-4
1.283,   3.560e-4
1.286,   3.563e-4
1.289,   3.588e-4
1.292,   3.584e-4
1.295,   3.588e-4
1.298,   3.670e-4
1.301,   3.617e-4
1.304,   3.659e-4
1.307,   3.689e-4
1.310,   3.696e-4
1.313,   3.740e-4
1.316,   3.698e-4
1.319,   3.749e-4
1.322,   3.815e-4
1.325,   3.820e-4
1.328,   3.825e-4
1.331,   3.877e-4
1.334,   3.903e-4
1.337,   3.921e-4
1.340,   3.970e-4
1.343,   3.960e-4
1.346,   4.022e-4
1.349,   4.087e-4
1.352,   4.096e-4
1.355,   4.133e-4
1.358,   4.148e-4
1.361,   4.247e-4
1.364,   4.285e-4
1.367,   4.324e-4
1.370,   4.433e-4
1.373,   4.495e-4
1.376,   4.545e-4
1.379,   4.581e-4
1.382,   4.688e-4
1.385,   4.843e-4
1.388,   4.952e-4
1.391,   5.048e-4
1.394,   5.227e-4
1.397,   5.366e-4
1.400,   5.564e-4
1.403,   5.733e-4
1.406,   6.065e-4
1.409,   6.473e-4
1.412,   6.782e-4
1.415,   7.277e-4
1.418,   7.862e-4
1.421,   8.692e-4
1.424,   9.441e-4
1.427,   1.035e-3
1.430,   1.169e-3
1.433,   1.318e-3
1.436,   1.488e-3
1.439,   1.673e-3
1.442,   1.919e-3
1.445,   2.194e-3
1.448,   2.480e-3
1.451,   2.816e-3
1.454,   3.253e-3
1.457,   3.693e-3
1.460,   4.109e-3
1.463,   4.600e-3
1.466,   5.216e-3
1.469,   5.846e-3
1.472,   6.531e-3
1.475,   7.139e-3
1.478,   7.833e-3
1.481,   8.638e-3
1.484,   9.111e-3
1.487,   9.595e-3
1.490,   9.881e-3
1.493,   1.003e-2
1.496,   7.221e-3
1.499,   4.864e-3
1.502,   4.766e-3