File: Experimental Records, Raw Data, and Supplementary Notes and Figures/batch5/final400/B5_BEST_400_#1_High_Quality(#27)-240mV.txt
May 31, 2023   15:11:37
Linear Sweep Voltammetry
File: d:\current work\al_oer\electrochemical test data\batch 5\400\B5_BEST_400_#1_High_Quality(#27)-240mV.txt
Data Source:  Experiment
Instrument Model:  CHI660E
Header:
Note:

Init E (V) = 0.903

Final E (V) = 1.537

Scan Rate (V/s) = 0.010
Sample Interval (V) = 0.001
Quiet Time (sec) = 2
Sensitivity (A/V) = 0.001
Comp R (ohm) = 6.4

Results:

Channel 1:

Potential/V, Current/A
0.903,   2.507e-4
0.906,   2.729e-4
0.909,   2.655e-4
0.912,   2.673e-4
0.915,   2.555e-4
0.918,   2.492e-4
0.921,   2.509e-4
0.924,   2.400e-4
0.927,   2.349e-4
0.930,   2.353e-4
0.933,   2.259e-4
0.936,   2.235e-4
0.939,   2.233e-4
0.942,   2.157e-4
0.945,   2.146e-4
0.948,   2.126e-4
0.951,   2.065e-4
0.954,   2.081e-4
0.957,   2.049e-4
0.960,   1.996e-4
0.963,   2.020e-4
0.966,   1.979e-4
0.969,   1.943e-4
0.972,   1.970e-4
0.975,   1.922e-4
0.978,   1.887e-4
0.981,   1.927e-4
0.984,   1.866e-4
0.987,   1.849e-4
0.990,   1.890e-4
0.993,   1.829e-4
0.996,   1.816e-4
0.999,   1.857e-4
1.002,   1.813e-4
1.005,   1.786e-4
1.008,   1.815e-4
1.011,   1.771e-4
1.014,   1.781e-4
1.017,   1.784e-4
1.020,   1.762e-4
1.023,   1.771e-4
1.026,   1.763e-4
1.029,   1.740e-4
1.032,   1.764e-4
1.035,   1.754e-4
1.038,   1.723e-4
1.041,   1.760e-4
1.044,   1.735e-4
1.047,   1.714e-4
1.050,   1.764e-4
1.053,   1.730e-4
1.056,   1.719e-4
1.059,   1.760e-4
1.062,   1.725e-4
1.065,   1.719e-4
1.068,   1.758e-4
1.071,   1.717e-4
1.074,   1.736e-4
1.077,   1.760e-4
1.080,   1.719e-4
1.083,   1.753e-4
1.086,   1.751e-4
1.089,   1.736e-4
1.092,   1.766e-4
1.095,   1.765e-4
1.098,   1.758e-4
1.101,   1.798e-4
1.104,   1.779e-4
1.107,   1.766e-4
1.110,   1.828e-4
1.113,   1.797e-4
1.116,   1.789e-4
1.119,   1.852e-4
1.122,   1.803e-4
1.125,   1.820e-4
1.128,   1.891e-4
1.131,   1.826e-4
1.134,   1.855e-4
1.137,   1.912e-4
1.140,   1.866e-4
1.143,   1.877e-4
1.146,   1.950e-4
1.149,   1.896e-4
1.152,   1.917e-4
1.155,   1.960e-4
1.158,   1.924e-4
1.161,   1.962e-4
1.164,   1.983e-4
1.167,   1.954e-4
1.170,   2.011e-4
1.173,   1.999e-4
1.176,   1.982e-4
1.179,   2.038e-4
1.182,   2.019e-4
1.185,   2.000e-4
1.188,   2.068e-4
1.191,   2.027e-4
1.194,   2.017e-4
1.197,   2.102e-4
1.200,   2.056e-4
1.203,   2.051e-4
1.206,   2.122e-4
1.209,   2.041e-4
1.212,   2.074e-4
1.215,   2.146e-4
1.218,   2.116e-4
1.221,   2.124e-4
1.224,   2.155e-4
1.227,   2.121e-4
1.230,   2.155e-4
1.233,   2.190e-4
1.236,   2.164e-4
1.239,   2.203e-4
1.242,   2.219e-4
1.245,   2.173e-4
1.248,   2.259e-4
1.251,   2.232e-4
1.254,   2.206e-4
1.257,   2.305e-4
1.260,   2.268e-4
1.263,   2.238e-4
1.266,   2.322e-4
1.269,   2.281e-4
1.272,   2.270e-4
1.275,   2.355e-4
1.278,   2.296e-4
1.281,   2.312e-4
1.284,   2.391e-4
1.287,   2.314e-4
1.290,   2.359e-4
1.293,   2.419e-4
1.296,   2.345e-4
1.299,   2.397e-4
1.302,   2.462e-4
1.305,   2.387e-4
1.308,   2.459e-4
1.311,   2.474e-4
1.314,   2.440e-4
1.317,   2.535e-4
1.320,   2.494e-4
1.323,   2.474e-4
1.326,   2.593e-4
1.329,   2.538e-4
1.332,   2.524e-4
1.335,   2.668e-4
1.338,   2.592e-4
1.341,   2.605e-4
1.344,   2.726e-4
1.347,   2.650e-4
1.350,   2.668e-4
1.353,   2.790e-4
1.356,   2.702e-4
1.359,   2.748e-4
1.362,   2.846e-4
1.365,   2.790e-4
1.368,   2.846e-4
1.371,   2.953e-4
1.374,   2.895e-4
1.377,   2.988e-4
1.380,   3.050e-4
1.383,   3.005e-4
1.386,   3.174e-4
1.389,   3.165e-4
1.392,   3.188e-4
1.395,   3.356e-4
1.398,   3.338e-4
1.401,   3.352e-4
1.404,   3.601e-4
1.407,   3.560e-4
1.410,   3.647e-4
1.413,   3.958e-4
1.416,   3.942e-4
1.419,   4.093e-4
1.422,   4.489e-4
1.425,   4.496e-4
1.428,   4.838e-4
1.431,   5.345e-4
1.434,   5.509e-4
1.437,   6.058e-4
1.440,   6.650e-4
1.443,   7.050e-4
1.446,   8.081e-4
1.449,   8.878e-4
1.452,   9.569e-4
1.455,   1.116e-3
1.458,   1.224e-3
1.461,   1.348e-3
1.464,   1.585e-3
1.467,   1.726e-3
1.470,   1.920e-3
1.473,   2.241e-3
1.476,   2.396e-3
1.479,   2.678e-3
1.482,   3.098e-3
1.485,   3.290e-3
1.488,   3.662e-3
1.491,   4.184e-3
1.494,   4.349e-3
1.497,   4.834e-3
1.500,   5.381e-3
1.503,   5.562e-3
1.506,   6.056e-3
1.509,   6.580e-3
1.512,   6.713e-3
1.515,   7.639e-3
1.518,   8.070e-3
1.521,   8.244e-3
1.524,   8.904e-3
1.527,   9.099e-3
1.530,   9.109e-3
1.533,   9.586e-3
1.536,   9.837e-3
1.537,   9.881e-3